#,Time(ms),CH1(mV)
0,3.0000000,10320.00
1,2.9960000,10320.00
2,2.9920000,10240.00
3,2.9880000,10240.00
4,2.9840000,10240.00
5,2.9800000,10320.00
6,2.9760000,10240.00
7,2.9720000,10240.00
8,2.9680000,10240.00
9,2.9640000,10240.00
10,2.9600000,10320.00
11,2.9560000,10320.00
12,2.9520000,10320.00
13,2.9480000,10320.00
14,2.9440000,10320.00
15,2.9400000,10320.00
16,2.9360000,10320.00
17,2.9320000,10320.00
18,2.9280000,10320.00
19,2.9240000,10320.00
20,2.9200000,10320.00
21,2.9160000,10320.00
22,2.9120000,10320.00
23,2.9080000,10240.00
24,2.9040000,10320.00
25,2.9000000,10320.00
26,2.8960000,10320.00
27,2.8920000,10320.00
28,2.8880000,10320.00
29,2.8840000,10240.00
30,2.8800000,10240.00
31,2.8760000,10240.00
32,2.8720000,10240.00
33,2.8680000,10320.00
34,2.8640000,10240.00
35,2.8600000,10240.00
36,2.8560000,10320.00
37,2.8520000,10240.00
38,2.8480000,10240.00
39,2.8440000,10320.00
40,2.8400000,10320.00
41,2.8360000,10320.00
42,2.8320000,10320.00
43,2.8280000,10320.00
44,2.8240000,10240.00
45,2.8200000,10320.00
46,2.8160000,10320.00
47,2.8120000,10320.00
48,2.8080000,10320.00
49,2.8040000,10320.00
50,2.8000000,10320.00
51,2.7960000,10320.00
52,2.7920000,10320.00
53,2.7880000,10240.00
54,2.7840000,10320.00
55,2.7800000,10320.00
56,2.7760000,10320.00
57,2.7720000,10320.00
58,2.7680000,10320.00
59,2.7640000,10320.00
60,2.7600000,10240.00
61,2.7560000,10320.00
62,2.7520000,10320.00
63,2.7480000,10320.00
64,2.7440000,10320.00
65,2.7400000,10240.00
66,2.7360000,10240.00
67,2.7320000,10240.00
68,2.7280000,10320.00
69,2.7240000,10320.00
70,2.7200000,10240.00
71,2.7160000,10320.00
72,2.7120000,10320.00
73,2.7080000,10320.00
74,2.7040000,10320.00
75,2.7000000,10320.00
76,2.6960000,10400.00
77,2.6920000,10400.00
78,2.6880000,10320.00
79,2.6840000,10320.00
80,2.6800000,10320.00
81,2.6760000,10320.00
82,2.6720000,10320.00
83,2.6680000,10240.00
84,2.6640000,10320.00
85,2.6600000,10320.00
86,2.6560000,10320.00
87,2.6520000,10320.00
88,2.6480000,10240.00
89,2.6440000,10240.00
90,2.6400000,10240.00
91,2.6360000,10320.00
92,2.6320000,10320.00
93,2.6280000,10320.00
94,2.6240000,10320.00
95,2.6200000,10240.00
96,2.6160000,10320.00
97,2.6120000,10320.00
98,2.6080000,10320.00
99,2.6040000,10240.00
100,2.6000000,10320.00
101,2.5960000,10240.00
102,2.5920000,10240.00
103,2.5880000,10320.00
104,2.5840000,10320.00
105,2.5800000,10320.00
106,2.5760000,10240.00
107,2.5720000,10400.00
108,2.5680000,10320.00
109,2.5640000,10320.00
110,2.5600000,10320.00
111,2.5560000,10320.00
112,2.5520000,10320.00
113,2.5480000,10320.00
114,2.5440000,10320.00
115,2.5400000,10320.00
116,2.5360000,10320.00
117,2.5320000,10320.00
118,2.5280000,10320.00
119,2.5240000,10320.00
120,2.5200000,10240.00
121,2.5160000,10320.00
122,2.5120000,10240.00
123,2.5080000,10320.00
124,2.5040000,10320.00
125,2.5000000,10320.00
126,2.4960000,10320.00
127,2.4920000,10320.00
128,2.4880000,10320.00
129,2.4840000,10320.00
130,2.4800000,10320.00
131,2.4760000,10320.00
132,2.4720000,10320.00
133,2.4680000,10320.00
134,2.4640000,10320.00
135,2.4600000,10400.00
136,2.4560000,10320.00
137,2.4520000,10320.00
138,2.4480000,10320.00
139,2.4440000,10320.00
140,2.4400000,10320.00
141,2.4360000,10320.00
142,2.4320000,10320.00
143,2.4280000,10320.00
144,2.4240000,10320.00
145,2.4200000,10320.00
146,2.4160000,10240.00
147,2.4120000,10240.00
148,2.4080000,10240.00
149,2.4040000,10320.00
150,2.4000000,10160.00
151,2.3960000,10320.00
152,2.3920000,10240.00
153,2.3880000,10320.00
154,2.3840000,10320.00
155,2.3800000,10240.00
156,2.3760000,10320.00
157,2.3720000,10240.00
158,2.3680000,10400.00
159,2.3640000,10240.00
160,2.3600000,10240.00
161,2.3560000,10400.00
162,2.3520000,10320.00
163,2.3480000,10400.00
164,2.3440000,10320.00
165,2.3400000,10320.00
166,2.3360000,10320.00
167,2.3320000,10320.00
168,2.3280000,10320.00
169,2.3240000,10240.00
170,2.3200000,10320.00
171,2.3160000,10320.00
172,2.3120000,10320.00
173,2.3080000,10320.00
174,2.3040000,10240.00
175,2.3000000,10240.00
176,2.2960000,10320.00
177,2.2920000,10320.00
178,2.2880000,10240.00
179,2.2840000,10320.00
180,2.2800000,10320.00
181,2.2760000,10240.00
182,2.2720000,10240.00
183,2.2680000,10240.00
184,2.2640000,10320.00
185,2.2600000,10240.00
186,2.2560000,10320.00
187,2.2520000,10320.00
188,2.2480000,10320.00
189,2.2440000,10240.00
190,2.2400000,10320.00
191,2.2360000,10240.00
192,2.2320000,10320.00
193,2.2280000,10320.00
194,2.2240000,10320.00
195,2.2200000,10320.00
196,2.2160000,10320.00
197,2.2120000,10320.00
198,2.2080000,10320.00
199,2.2040000,10320.00
200,2.2000000,10320.00
201,2.1960000,10320.00
202,2.1920000,10240.00
203,2.1880000,10320.00
204,2.1840000,10320.00
205,2.1800000,10240.00
206,2.1760000,10240.00
207,2.1720000,10240.00
208,2.1680000,10240.00
209,2.1640000,10320.00
210,2.1600000,10160.00
211,2.1560000,10320.00
212,2.1520000,10240.00
213,2.1480000,10320.00
214,2.1440000,10240.00
215,2.1400000,10320.00
216,2.1360000,10320.00
217,2.1320000,10320.00
218,2.1280000,10320.00
219,2.1240000,10320.00
220,2.1200000,10320.00
221,2.1160000,10320.00
222,2.1120000,10320.00
223,2.1080000,10320.00
224,2.1040000,10320.00
225,2.1000000,10320.00
226,2.0960000,10320.00
227,2.0920000,10240.00
228,2.0880000,10320.00
229,2.0840000,10320.00
230,2.0800000,10320.00
231,2.0760000,10400.00
232,2.0720000,10320.00
233,2.0680000,10240.00
234,2.0640000,10320.00
235,2.0600000,10320.00
236,2.0560000,10320.00
237,2.0520000,10320.00
238,2.0480000,10240.00
239,2.0440000,10320.00
240,2.0400000,10320.00
241,2.0360000,10240.00
242,2.0320000,10320.00
243,2.0280000,10320.00
244,2.0240000,10320.00
245,2.0200000,10320.00
246,2.0160000,10320.00
247,2.0120000,10320.00
248,2.0080000,10320.00
249,2.0040000,10320.00
250,2.0000000,10320.00
251,1.9960000,10320.00
252,1.9920000,10320.00
253,1.9880000,10320.00
254,1.9840000,10320.00
255,1.9800000,10320.00
256,1.9760000,10320.00
257,1.9720000,10320.00
258,1.9680000,10320.00
259,1.9640000,10320.00
260,1.9600000,10320.00
261,1.9560000,10240.00
262,1.9520000,10320.00
263,1.9480000,10320.00
264,1.9440000,10320.00
265,1.9400000,10320.00
266,1.9360000,10320.00
267,1.9320000,10320.00
268,1.9280000,10320.00
269,1.9240000,10320.00
270,1.9200000,10240.00
271,1.9160000,10320.00
272,1.9120000,10240.00
273,1.9080000,10320.00
274,1.9040000,10320.00
275,1.9000000,10320.00
276,1.8960000,10320.00
277,1.8920000,10240.00
278,1.8880000,10320.00
279,1.8840000,10320.00
280,1.8800000,10320.00
281,1.8760000,10320.00
282,1.8720000,10320.00
283,1.8680000,10320.00
284,1.8640000,10320.00
285,1.8600000,10400.00
286,1.8560000,10320.00
287,1.8520000,10320.00
288,1.8480000,10320.00
289,1.8440000,10320.00
290,1.8400000,10320.00
291,1.8360000,10320.00
292,1.8320000,10240.00
293,1.8280000,10320.00
294,1.8240000,10320.00
295,1.8200000,10240.00
296,1.8160000,10320.00
297,1.8120000,10320.00
298,1.8080000,10320.00
299,1.8040000,10240.00
300,1.8000000,10320.00
301,1.7960000,10240.00
302,1.7920000,10240.00
303,1.7880000,10240.00
304,1.7840000,10320.00
305,1.7800000,10240.00
306,1.7760000,10320.00
307,1.7720000,10240.00
308,1.7680000,10320.00
309,1.7640000,10320.00
310,1.7600000,10320.00
311,1.7560000,10320.00
312,1.7520000,10320.00
313,1.7480000,10320.00
314,1.7440000,10320.00
315,1.7400000,10240.00
316,1.7360000,10320.00
317,1.7320000,10320.00
318,1.7280000,10320.00
319,1.7240000,10320.00
320,1.7200000,10240.00
321,1.7160000,10320.00
322,1.7120000,10320.00
323,1.7080000,10240.00
324,1.7040000,10320.00
325,1.7000000,10320.00
326,1.6960000,10320.00
327,1.6920000,10240.00
328,1.6880000,10320.00
329,1.6840000,10240.00
330,1.6800000,10240.00
331,1.6760000,10320.00
332,1.6720000,10240.00
333,1.6680000,10320.00
334,1.6640000,10320.00
335,1.6600000,10320.00
336,1.6560000,10240.00
337,1.6520000,10320.00
338,1.6480000,10400.00
339,1.6440000,10240.00
340,1.6400000,10320.00
341,1.6360000,10320.00
342,1.6320000,10320.00
343,1.6280000,10400.00
344,1.6240000,10320.00
345,1.6200000,10240.00
346,1.6160000,10320.00
347,1.6120000,10240.00
348,1.6080000,10320.00
349,1.6040000,10320.00
350,1.6000000,10240.00
351,1.5960000,10320.00
352,1.5920000,10160.00
353,1.5880000,10320.00
354,1.5840000,10240.00
355,1.5800000,10240.00
356,1.5760000,10240.00
357,1.5720000,10320.00
358,1.5680000,10320.00
359,1.5640000,10240.00
360,1.5600000,10320.00
361,1.5560000,10240.00
362,1.5520000,10320.00
363,1.5480000,10320.00
364,1.5440000,10240.00
365,1.5400000,10240.00
366,1.5360000,10320.00
367,1.5320000,10320.00
368,1.5280000,10320.00
369,1.5240000,10320.00
370,1.5200000,10400.00
371,1.5160000,10320.00
372,1.5120000,10240.00
373,1.5080000,10320.00
374,1.5040000,10320.00
375,1.5000000,10320.00
376,1.4960000,10320.00
377,1.4920000,10320.00
378,1.4880000,10240.00
379,1.4840000,10320.00
380,1.4800000,10240.00
381,1.4760000,10320.00
382,1.4720000,10320.00
383,1.4680000,10320.00
384,1.4640000,10320.00
385,1.4600000,10240.00
386,1.4560000,10320.00
387,1.4520000,10320.00
388,1.4480000,10320.00
389,1.4440000,10240.00
390,1.4400000,10240.00
391,1.4360000,10240.00
392,1.4320000,10320.00
393,1.4280000,10320.00
394,1.4240000,10320.00
395,1.4200000,10240.00
396,1.4160000,10320.00
397,1.4120000,10320.00
398,1.4080000,10400.00
399,1.4040000,10320.00
400,1.4000000,10320.00
401,1.3960000,10320.00
402,1.3920000,10320.00
403,1.3880000,10320.00
404,1.3840000,10320.00
405,1.3800000,10320.00
406,1.3760000,10320.00
407,1.3720000,10320.00
408,1.3680000,10320.00
409,1.3640000,10320.00
410,1.3600000,10240.00
411,1.3560000,10320.00
412,1.3520000,10240.00
413,1.3480000,10240.00
414,1.3440000,10320.00
415,1.3400000,10240.00
416,1.3360000,10240.00
417,1.3320000,10240.00
418,1.3280000,10320.00
419,1.3240000,10320.00
420,1.3200000,10240.00
421,1.3160000,10320.00
422,1.3120000,10320.00
423,1.3080000,10400.00
424,1.3040000,10240.00
425,1.3000000,10320.00
426,1.2960000,10320.00
427,1.2920000,10320.00
428,1.2880000,10320.00
429,1.2840000,10320.00
430,1.2800000,10320.00
431,1.2760000,10320.00
432,1.2720000,10320.00
433,1.2680000,10240.00
434,1.2640000,10320.00
435,1.2600000,10320.00
436,1.2560000,10320.00
437,1.2520000,10320.00
438,1.2480000,10320.00
439,1.2440000,10240.00
440,1.2400000,10320.00
441,1.2360000,10320.00
442,1.2320000,10320.00
443,1.2280000,10320.00
444,1.2240000,10240.00
445,1.2200000,10240.00
446,1.2160000,10240.00
447,1.2120000,10320.00
448,1.2080000,10320.00
449,1.2040000,10240.00
450,1.2000000,10320.00
451,1.1960000,10320.00
452,1.1920000,10320.00
453,1.1880000,10320.00
454,1.1840000,10320.00
455,1.1800000,10320.00
456,1.1760000,10400.00
457,1.1720000,10240.00
458,1.1680000,10320.00
459,1.1640000,10320.00
460,1.1600000,10320.00
461,1.1560000,10320.00
462,1.1520000,10320.00
463,1.1480000,10320.00
464,1.1440000,10320.00
465,1.1400000,10320.00
466,1.1360000,10320.00
467,1.1320000,10320.00
468,1.1280000,10320.00
469,1.1240000,10320.00
470,1.1200000,10240.00
471,1.1160000,10320.00
472,1.1120000,10320.00
473,1.1080000,10240.00
474,1.1040000,10320.00
475,1.1000000,10240.00
476,1.0960000,10320.00
477,1.0920000,10240.00
478,1.0880000,10320.00
479,1.0840000,10320.00
480,1.0800000,10320.00
481,1.0760000,10320.00
482,1.0720000,10320.00
483,1.0680000,10320.00
484,1.0640000,10240.00
485,1.0600000,10320.00
486,1.0560000,10400.00
487,1.0520000,10320.00
488,1.0480000,10320.00
489,1.0440000,10320.00
490,1.0400000,10400.00
491,1.0360000,10320.00
492,1.0320000,10320.00
493,1.0280000,10320.00
494,1.0240000,10320.00
495,1.0200000,10320.00
496,1.0160000,10320.00
497,1.0120000,10320.00
498,1.0080000,10320.00
499,1.0040000,10320.00
500,1.0000000,10240.00
501,0.9960000,10320.00
502,0.9920000,10320.00
503,0.9880000,10240.00
504,0.9840000,10320.00
505,0.9800000,10240.00
506,0.9760000,10320.00
507,0.9720000,10320.00
508,0.9680000,10320.00
509,0.9640000,10240.00
510,0.9600000,10320.00
511,0.9560000,10320.00
512,0.9520000,10320.00
513,0.9480000,10320.00
514,0.9440000,10320.00
515,0.9400000,10240.00
516,0.9360000,10400.00
517,0.9320000,10320.00
518,0.9280000,10320.00
519,0.9240000,10320.00
520,0.9200000,10320.00
521,0.9160000,10320.00
522,0.9120000,10240.00
523,0.9080000,10320.00
524,0.9040000,10320.00
525,0.9000000,10320.00
526,0.8960000,10320.00
527,0.8920000,10320.00
528,0.8880000,10240.00
529,0.8840000,10240.00
530,0.8800000,10320.00
531,0.8760000,10320.00
532,0.8720000,10320.00
533,0.8680000,10240.00
534,0.8640000,10240.00
535,0.8600000,10240.00
536,0.8560000,10320.00
537,0.8520000,10320.00
538,0.8480000,10320.00
539,0.8440000,10320.00
540,0.8400000,10240.00
541,0.8360000,10320.00
542,0.8320000,10320.00
543,0.8280000,10320.00
544,0.8240000,10240.00
545,0.8200000,10320.00
546,0.8160000,10320.00
547,0.8120000,10320.00
548,0.8080000,10320.00
549,0.8040000,10320.00
550,0.8000000,10320.00
551,0.7960000,10320.00
552,0.7920000,10320.00
553,0.7880000,10320.00
554,0.7840000,10320.00
555,0.7800000,10320.00
556,0.7760000,10320.00
557,0.7720000,10320.00
558,0.7680000,10240.00
559,0.7640000,10320.00
560,0.7600000,10320.00
561,0.7560000,10320.00
562,0.7520000,10240.00
563,0.7480000,10320.00
564,0.7440000,10320.00
565,0.7400000,10320.00
566,0.7360000,10320.00
567,0.7320000,10320.00
568,0.7280000,10320.00
569,0.7240000,10320.00
570,0.7200000,10320.00
571,0.7160000,10320.00
572,0.7120000,10320.00
573,0.7080000,10240.00
574,0.7040000,10320.00
575,0.7000000,10240.00
576,0.6960000,10320.00
577,0.6920000,10320.00
578,0.6880000,10320.00
579,0.6840000,10320.00
580,0.6800000,10320.00
581,0.6760000,10320.00
582,0.6720000,10240.00
583,0.6680000,10320.00
584,0.6640000,10320.00
585,0.6600000,10400.00
586,0.6560000,10320.00
587,0.6520000,10320.00
588,0.6480000,10320.00
589,0.6440000,10320.00
590,0.6400000,10320.00
591,0.6360000,10240.00
592,0.6320000,10320.00
593,0.6280000,10320.00
594,0.6240000,10320.00
595,0.6200000,10320.00
596,0.6160000,10400.00
597,0.6120000,10320.00
598,0.6080000,10240.00
599,0.6040000,10320.00
600,0.6000000,10320.00
601,0.5960000,10320.00
602,0.5920000,10240.00
603,0.5880000,10320.00
604,0.5840000,10320.00
605,0.5800000,10320.00
606,0.5760000,10240.00
607,0.5720000,10320.00
608,0.5680000,10320.00
609,0.5640000,10240.00
610,0.5600000,10320.00
611,0.5560000,10320.00
612,0.5520000,10320.00
613,0.5480000,10320.00
614,0.5440000,10320.00
615,0.5400000,10320.00
616,0.5360000,10320.00
617,0.5320000,10320.00
618,0.5280000,10240.00
619,0.5240000,10240.00
620,0.5200000,10320.00
621,0.5160000,10320.00
622,0.5120000,10320.00
623,0.5080000,10320.00
624,0.5040000,10320.00
625,0.5000000,10240.00
626,0.4960000,10240.00
627,0.4920000,10320.00
628,0.4880000,10240.00
629,0.4840000,10320.00
630,0.4800000,10320.00
631,0.4760000,10320.00
632,0.4720000,10320.00
633,0.4680000,10320.00
634,0.4640000,10320.00
635,0.4600000,10320.00
636,0.4560000,10320.00
637,0.4520000,10320.00
638,0.4480000,10320.00
639,0.4440000,10240.00
640,0.4400000,10320.00
641,0.4360000,10320.00
642,0.4320000,10320.00
643,0.4280000,10320.00
644,0.4240000,10320.00
645,0.4200000,10320.00
646,0.4160000,10240.00
647,0.4120000,10240.00
648,0.4080000,10320.00
649,0.4040000,10320.00
650,0.4000000,10320.00
651,0.3960000,10320.00
652,0.3920000,10240.00
653,0.3880000,10320.00
654,0.3840000,10240.00
655,0.3800000,10240.00
656,0.3760000,10240.00
657,0.3720000,10320.00
658,0.3680000,10320.00
659,0.3640000,10320.00
660,0.3600000,10320.00
661,0.3560000,10320.00
662,0.3520000,10320.00
663,0.3480000,10320.00
664,0.3440000,10320.00
665,0.3400000,10320.00
666,0.3360000,10240.00
667,0.3320000,10320.00
668,0.3280000,10320.00
669,0.3240000,10320.00
670,0.3200000,10240.00
671,0.3160000,10320.00
672,0.3120000,10240.00
673,0.3080000,10320.00
674,0.3040000,10320.00
675,0.3000000,10240.00
676,0.2960000,10320.00
677,0.2920000,10320.00
678,0.2880000,10240.00
679,0.2840000,10240.00
680,0.2800000,10160.00
681,0.2760000,10320.00
682,0.2720000,10320.00
683,0.2680000,10320.00
684,0.2640000,10240.00
685,0.2600000,10240.00
686,0.2560000,10240.00
687,0.2520000,10320.00
688,0.2480000,10320.00
689,0.2440000,10240.00
690,0.2400000,10240.00
691,0.2360000,10320.00
692,0.2320000,10400.00
693,0.2280000,10400.00
694,0.2240000,10320.00
695,0.2200000,10320.00
696,0.2160000,10320.00
697,0.2120000,10320.00
698,0.2080000,10400.00
699,0.2040000,10320.00
700,0.2000000,10320.00
701,0.1960000,10320.00
702,0.1920000,10320.00
703,0.1880000,10320.00
704,0.1840000,10320.00
705,0.1800000,10320.00
706,0.1760000,10160.00
707,0.1720000,10240.00
708,0.1680000,10320.00
709,0.1640000,10320.00
710,0.1600000,10320.00
711,0.1560000,10320.00
712,0.1520000,10320.00
713,0.1480000,10320.00
714,0.1440000,10240.00
715,0.1400000,10320.00
716,0.1360000,10320.00
717,0.1320000,10240.00
718,0.1280000,10320.00
719,0.1240000,10320.00
720,0.1200000,10320.00
721,0.1160000,10320.00
722,0.1120000,10320.00
723,0.1080000,10320.00
724,0.1040000,10320.00
725,0.1000000,10240.00
726,0.0960000,10320.00
727,0.0920000,10320.00
728,0.0880000,10320.00
729,0.0840000,10320.00
730,0.0800000,10320.00
731,0.0760000,10320.00
732,0.0720000,10320.00
733,0.0680000,10320.00
734,0.0640000,10320.00
735,0.0600000,10320.00
736,0.0560000,10320.00
737,0.0520000,10320.00
738,0.0480000,10320.00
739,0.0440000,10240.00
740,0.0400000,10240.00
741,0.0360000,10320.00
742,0.0320000,10240.00
743,0.0280000,10320.00
744,0.0240000,10320.00
745,0.0200000,10320.00
746,0.0160000,10240.00
747,0.0120000,10320.00
748,0.0080000,10320.00
749,0.0040000,10320.00
750,0.0000000,10240.00
751,-0.0040000,10320.00
752,-0.0080000,10320.00
753,-0.0120000,10320.00
754,-0.0160000,10320.00
755,-0.0200000,10320.00
756,-0.0240000,10240.00
757,-0.0280000,10320.00
758,-0.0320000,10320.00
759,-0.0360000,10320.00
760,-0.0400000,400.00
761,-0.0440000,480.00
762,-0.0480000,480.00
763,-0.0520000,320.00
764,-0.0560000,480.00
765,-0.0600000,480.00
766,-0.0640000,400.00
767,-0.0680000,480.00
768,-0.0720000,480.00
769,-0.0760000,400.00
770,-0.0800000,480.00
771,-0.0840000,400.00
772,-0.0880000,480.00
773,-0.0920000,400.00
774,-0.0960000,400.00
775,-0.1000000,400.00
776,-0.1040000,400.00
777,-0.1080000,400.00
778,-0.1120000,480.00
779,-0.1160000,400.00
780,-0.1200000,400.00
781,-0.1240000,560.00
782,-0.1280000,480.00
783,-0.1320000,480.00
784,-0.1360000,400.00
785,-0.1400000,480.00
786,-0.1440000,480.00
787,-0.1480000,480.00
788,-0.1520000,400.00
789,-0.1560000,480.00
790,-0.1600000,400.00
791,-0.1640000,480.00
792,-0.1680000,2480.00
793,-0.1720000,8080.00
794,-0.1760000,9600.00
795,-0.1800000,10000.00
796,-0.1840000,10080.00
797,-0.1880000,10160.00
798,-0.1920000,10240.00
799,-0.1960000,10160.00
800,-0.2000000,10320.00
801,-0.2040000,10160.00
802,-0.2080000,10240.00
803,-0.2120000,10160.00
804,-0.2160000,10240.00
805,-0.2200000,10240.00
806,-0.2240000,10240.00
807,-0.2280000,10320.00
808,-0.2320000,10240.00
809,-0.2360000,10240.00
810,-0.2400000,10240.00
811,-0.2440000,10240.00
812,-0.2480000,10240.00
813,-0.2520000,10320.00
814,-0.2560000,10240.00
815,-0.2600000,10240.00
816,-0.2640000,10240.00
817,-0.2680000,10320.00
818,-0.2720000,10320.00
819,-0.2760000,10240.00
820,-0.2800000,10240.00
821,-0.2840000,10240.00
822,-0.2880000,10320.00
823,-0.2920000,10240.00
824,-0.2960000,10240.00
825,-0.3000000,10240.00
826,-0.3040000,10240.00
827,-0.3080000,10320.00
828,-0.3120000,10240.00
829,-0.3160000,10240.00
830,-0.3200000,10160.00
831,-0.3240000,10160.00
832,-0.3280000,10240.00
833,-0.3320000,10320.00
834,-0.3360000,10240.00
835,-0.3400000,10240.00
836,-0.3440000,10240.00
837,-0.3480000,10240.00
838,-0.3520000,10160.00
839,-0.3560000,400.00
840,-0.3600000,400.00
841,-0.3640000,480.00
842,-0.3680000,480.00
843,-0.3720000,480.00
844,-0.3760000,480.00
845,-0.3800000,480.00
846,-0.3840000,480.00
847,-0.3880000,480.00
848,-0.3920000,560.00
849,-0.3960000,480.00
850,-0.4000000,480.00
851,-0.4040000,480.00
852,-0.4080000,480.00
853,-0.4120000,400.00
854,-0.4160000,480.00
855,-0.4200000,480.00
856,-0.4240000,480.00
857,-0.4280000,480.00
858,-0.4320000,480.00
859,-0.4360000,400.00
860,-0.4400000,480.00
861,-0.4440000,480.00
862,-0.4480000,400.00
863,-0.4520000,400.00
864,-0.4560000,400.00
865,-0.4600000,480.00
866,-0.4640000,480.00
867,-0.4680000,400.00
868,-0.4720000,400.00
869,-0.4760000,480.00
870,-0.4800000,480.00
871,-0.4840000,640.00
872,-0.4880000,7280.00
873,-0.4920000,9360.00
874,-0.4960000,10000.00
875,-0.5000000,10080.00
876,-0.5040000,10240.00
877,-0.5080000,10240.00
878,-0.5120000,10240.00
879,-0.5160000,10240.00
880,-0.5200000,10160.00
881,-0.5240000,10240.00
882,-0.5280000,10160.00
883,-0.5320000,10240.00
884,-0.5360000,10160.00
885,-0.5400000,10160.00
886,-0.5440000,10240.00
887,-0.5480000,10240.00
888,-0.5520000,10240.00
889,-0.5560000,10240.00
890,-0.5600000,10160.00
891,-0.5640000,10240.00
892,-0.5680000,10160.00
893,-0.5720000,10240.00
894,-0.5760000,10160.00
895,-0.5800000,10240.00
896,-0.5840000,10240.00
897,-0.5880000,10240.00
898,-0.5920000,10240.00
899,-0.5960000,10240.00
900,-0.6000000,10320.00
901,-0.6040000,10240.00
902,-0.6080000,10240.00
903,-0.6120000,10320.00
904,-0.6160000,10240.00
905,-0.6200000,10320.00
906,-0.6240000,10240.00
907,-0.6280000,10240.00
908,-0.6320000,10320.00
909,-0.6360000,10240.00
910,-0.6400000,10320.00
911,-0.6440000,10320.00
912,-0.6480000,10160.00
913,-0.6520000,10240.00
914,-0.6560000,10160.00
915,-0.6600000,10240.00
916,-0.6640000,10240.00
917,-0.6680000,10320.00
918,-0.6720000,10240.00
919,-0.6760000,10240.00
920,-0.6800000,10240.00
921,-0.6840000,10240.00
922,-0.6880000,10240.00
923,-0.6920000,10240.00
924,-0.6960000,10240.00
925,-0.7000000,10240.00
926,-0.7040000,10240.00
927,-0.7080000,10320.00
928,-0.7120000,10240.00
929,-0.7160000,10240.00
930,-0.7200000,10240.00
931,-0.7240000,10240.00
932,-0.7280000,10240.00
933,-0.7320000,10240.00
934,-0.7360000,10240.00
935,-0.7400000,10320.00
936,-0.7440000,10240.00
937,-0.7480000,10400.00
938,-0.7520000,10240.00
939,-0.7560000,10320.00
940,-0.7600000,10240.00
941,-0.7640000,10160.00
942,-0.7680000,10240.00
943,-0.7720000,10240.00
944,-0.7760000,10240.00
945,-0.7800000,10160.00
946,-0.7840000,10160.00
947,-0.7880000,10240.00
948,-0.7920000,10240.00
949,-0.7960000,10240.00
950,-0.8000000,10160.00
951,-0.8040000,10240.00
952,-0.8080000,10320.00
953,-0.8120000,10240.00
954,-0.8160000,10320.00
955,-0.8200000,10240.00
956,-0.8240000,10160.00
957,-0.8280000,10240.00
958,-0.8320000,10240.00
959,-0.8360000,10240.00
960,-0.8400000,10240.00
961,-0.8440000,10320.00
962,-0.8480000,10320.00
963,-0.8520000,10320.00
964,-0.8560000,10240.00
965,-0.8600000,10320.00
966,-0.8640000,10240.00
967,-0.8680000,10240.00
968,-0.8720000,10320.00
969,-0.8760000,10320.00
970,-0.8800000,10240.00
971,-0.8840000,10240.00
972,-0.8880000,10240.00
973,-0.8920000,10240.00
974,-0.8960000,10240.00
975,-0.9000000,10160.00
976,-0.9040000,10240.00
977,-0.9080000,10240.00
978,-0.9120000,10240.00
979,-0.9160000,10160.00
980,-0.9200000,10240.00
981,-0.9240000,10240.00
982,-0.9280000,10160.00
983,-0.9320000,10240.00
984,-0.9360000,10240.00
985,-0.9400000,10160.00
986,-0.9440000,10240.00
987,-0.9480000,10240.00
988,-0.9520000,10320.00
989,-0.9560000,10240.00
990,-0.9600000,10240.00
991,-0.9640000,10240.00
992,-0.9680000,10240.00
993,-0.9720000,10240.00
994,-0.9760000,10320.00
995,-0.9800000,10320.00
996,-0.9840000,10320.00
997,-0.9880000,10320.00
998,-0.9920000,10320.00
999,-0.9960000,10240.00
1000,-1.0000000,10240.00
1001,-1.0040000,10240.00
1002,-1.0080000,10240.00
1003,-1.0120000,10240.00
1004,-1.0160000,10160.00
1005,-1.0200000,10160.00
1006,-1.0240000,10160.00
1007,-1.0280000,10240.00
1008,-1.0320000,10240.00
1009,-1.0360000,10240.00
1010,-1.0400000,10160.00
1011,-1.0440000,10240.00
1012,-1.0480000,10240.00
1013,-1.0520000,10240.00
1014,-1.0560000,10160.00
1015,-1.0600000,10240.00
1016,-1.0640000,10240.00
1017,-1.0680000,10320.00
1018,-1.0720000,10320.00
1019,-1.0760000,10240.00
1020,-1.0800000,10320.00
1021,-1.0840000,10320.00
1022,-1.0880000,10240.00
1023,-1.0920000,10240.00
1024,-1.0960000,10240.00
1025,-1.1000000,10320.00
1026,-1.1040000,10320.00
1027,-1.1080000,10320.00
1028,-1.1120000,10240.00
1029,-1.1160000,10320.00
1030,-1.1200000,10240.00
1031,-1.1240000,10240.00
1032,-1.1280000,10240.00
1033,-1.1320000,10240.00
1034,-1.1360000,10160.00
1035,-1.1400000,10240.00
1036,-1.1440000,10240.00
1037,-1.1480000,10160.00
1038,-1.1520000,10240.00
1039,-1.1560000,10240.00
1040,-1.1600000,10240.00
1041,-1.1640000,10240.00
1042,-1.1680000,10240.00
1043,-1.1720000,10240.00
1044,-1.1760000,10160.00
1045,-1.1800000,10240.00
1046,-1.1840000,10240.00
1047,-1.1880000,10240.00
1048,-1.1920000,10240.00
1049,-1.1960000,10320.00
1050,-1.2000000,10240.00
1051,-1.2040000,10240.00
1052,-1.2080000,10320.00
1053,-1.2120000,10240.00
1054,-1.2160000,10320.00
1055,-1.2200000,10320.00
1056,-1.2240000,10240.00
1057,-1.2280000,10320.00
1058,-1.2320000,10240.00
1059,-1.2360000,10240.00
1060,-1.2400000,10160.00
1061,-1.2440000,10240.00
1062,-1.2480000,10240.00
1063,-1.2520000,10240.00
1064,-1.2560000,10240.00
1065,-1.2600000,10320.00
1066,-1.2640000,10240.00
1067,-1.2680000,10240.00
1068,-1.2720000,10240.00
1069,-1.2760000,10240.00
1070,-1.2800000,10240.00
1071,-1.2840000,10240.00
1072,-1.2880000,10320.00
1073,-1.2920000,10320.00
1074,-1.2960000,10240.00
1075,-1.3000000,10320.00
1076,-1.3040000,10160.00
1077,-1.3080000,10240.00
1078,-1.3120000,10320.00
1079,-1.3160000,10320.00
1080,-1.3200000,10240.00
1081,-1.3240000,10320.00
1082,-1.3280000,10320.00
1083,-1.3320000,10320.00
1084,-1.3360000,10240.00
1085,-1.3400000,10240.00
1086,-1.3440000,10240.00
1087,-1.3480000,10240.00
1088,-1.3520000,10320.00
1089,-1.3560000,10240.00
1090,-1.3600000,10240.00
1091,-1.3640000,10160.00
1092,-1.3680000,10240.00
1093,-1.3720000,10160.00
1094,-1.3760000,10240.00
1095,-1.3800000,10240.00
1096,-1.3840000,10240.00
1097,-1.3880000,10320.00
1098,-1.3920000,10240.00
1099,-1.3960000,10240.00
1100,-1.4000000,10240.00
1101,-1.4040000,10240.00
1102,-1.4080000,10240.00
1103,-1.4120000,10240.00
1104,-1.4160000,10240.00
1105,-1.4200000,10160.00
1106,-1.4240000,10320.00
1107,-1.4280000,10320.00
1108,-1.4320000,10240.00
1109,-1.4360000,10240.00
1110,-1.4400000,10320.00
1111,-1.4440000,10320.00
1112,-1.4480000,10320.00
1113,-1.4520000,10320.00
1114,-1.4560000,10320.00
1115,-1.4600000,10160.00
1116,-1.4640000,10240.00
1117,-1.4680000,10240.00
1118,-1.4720000,10240.00
1119,-1.4760000,10240.00
1120,-1.4800000,10240.00
1121,-1.4840000,10320.00
1122,-1.4880000,10240.00
1123,-1.4920000,10240.00
1124,-1.4960000,10240.00
1125,-1.5000000,10240.00
1126,-1.5040000,10240.00
1127,-1.5080000,10240.00
1128,-1.5120000,10240.00
1129,-1.5160000,10240.00
1130,-1.5200000,10240.00
1131,-1.5240000,10240.00
1132,-1.5280000,10240.00
1133,-1.5320000,10160.00
1134,-1.5360000,10240.00
1135,-1.5400000,10320.00
1136,-1.5440000,10240.00
1137,-1.5480000,10320.00
1138,-1.5520000,10320.00
1139,-1.5560000,10240.00
1140,-1.5600000,10240.00
1141,-1.5640000,10320.00
1142,-1.5680000,10240.00
1143,-1.5720000,10240.00
1144,-1.5760000,10320.00
1145,-1.5800000,10240.00
1146,-1.5840000,10240.00
1147,-1.5880000,10320.00
1148,-1.5920000,10240.00
1149,-1.5960000,10240.00
1150,-1.6000000,10240.00
1151,-1.6040000,10240.00
1152,-1.6080000,10240.00
1153,-1.6120000,10240.00
1154,-1.6160000,10240.00
1155,-1.6200000,10240.00
1156,-1.6240000,10240.00
1157,-1.6280000,10160.00
1158,-1.6320000,10240.00
1159,-1.6360000,10240.00
1160,-1.6400000,10320.00
1161,-1.6440000,10320.00
1162,-1.6480000,10240.00
1163,-1.6520000,10240.00
1164,-1.6560000,10240.00
1165,-1.6600000,10320.00
1166,-1.6640000,10320.00
1167,-1.6680000,10320.00
1168,-1.6720000,10320.00
1169,-1.6760000,10240.00
1170,-1.6800000,10320.00
1171,-1.6840000,10320.00
1172,-1.6880000,10240.00
1173,-1.6920000,10320.00
1174,-1.6960000,10320.00
1175,-1.7000000,10240.00
1176,-1.7040000,10320.00
1177,-1.7080000,10240.00
1178,-1.7120000,10160.00
1179,-1.7160000,10160.00
1180,-1.7200000,10160.00
1181,-1.7240000,10240.00
1182,-1.7280000,10240.00
1183,-1.7320000,10160.00
1184,-1.7360000,10240.00
1185,-1.7400000,10240.00
1186,-1.7440000,10160.00
1187,-1.7480000,10160.00
1188,-1.7520000,10320.00
1189,-1.7560000,10320.00
1190,-1.7600000,10320.00
1191,-1.7640000,10240.00
1192,-1.7680000,10240.00
1193,-1.7720000,10320.00
1194,-1.7760000,10320.00
1195,-1.7800000,10240.00
1196,-1.7840000,10240.00
1197,-1.7880000,10320.00
1198,-1.7920000,10320.00
1199,-1.7960000,10320.00
1200,-1.8000000,10320.00
1201,-1.8040000,10320.00
1202,-1.8080000,10320.00
1203,-1.8120000,10320.00
1204,-1.8160000,10320.00
1205,-1.8200000,10240.00
1206,-1.8240000,10160.00
1207,-1.8280000,10240.00
1208,-1.8320000,10240.00
1209,-1.8360000,10160.00
1210,-1.8400000,10160.00
1211,-1.8440000,10240.00
1212,-1.8480000,10240.00
1213,-1.8520000,10240.00
1214,-1.8560000,10240.00
1215,-1.8600000,10240.00
1216,-1.8640000,10240.00
1217,-1.8680000,10160.00
1218,-1.8720000,10320.00
1219,-1.8760000,10320.00
1220,-1.8800000,10320.00
1221,-1.8840000,10240.00
1222,-1.8880000,10240.00
1223,-1.8920000,10320.00
1224,-1.8960000,10320.00
1225,-1.9000000,10240.00
1226,-1.9040000,10320.00
1227,-1.9080000,10320.00
1228,-1.9120000,10240.00
1229,-1.9160000,10320.00
1230,-1.9200000,10320.00
1231,-1.9240000,10320.00
1232,-1.9280000,10240.00
1233,-1.9320000,10320.00
1234,-1.9360000,10320.00
1235,-1.9400000,10240.00
1236,-1.9440000,10240.00
1237,-1.9480000,10320.00
1238,-1.9520000,10320.00
1239,-1.9560000,10160.00
1240,-1.9600000,10320.00
1241,-1.9640000,10240.00
1242,-1.9680000,10320.00
1243,-1.9720000,10240.00
1244,-1.9760000,10240.00
1245,-1.9800000,10240.00
1246,-1.9840000,10240.00
1247,-1.9880000,10240.00
1248,-1.9920000,10160.00
1249,-1.9960000,10320.00
1250,-2.0000000,10320.00
1251,-2.0040000,10240.00
1252,-2.0080000,10240.00
1253,-2.0120000,10240.00
1254,-2.0160000,10240.00
1255,-2.0200000,10160.00
1256,-2.0240000,10240.00
1257,-2.0280000,10320.00
1258,-2.0320000,10240.00
1259,-2.0360000,10320.00
1260,-2.0400000,10320.00
1261,-2.0440000,10240.00
1262,-2.0480000,10320.00
1263,-2.0520000,10240.00
1264,-2.0560000,10240.00
1265,-2.0600000,10240.00
1266,-2.0640000,10240.00
1267,-2.0680000,10240.00
1268,-2.0720000,10160.00
1269,-2.0760000,10240.00
1270,-2.0800000,10320.00
1271,-2.0840000,10320.00
1272,-2.0880000,10240.00
1273,-2.0920000,10320.00
1274,-2.0960000,10240.00
1275,-2.1000000,10160.00
1276,-2.1040000,10240.00
1277,-2.1080000,10320.00
1278,-2.1120000,10320.00
1279,-2.1160000,10320.00
1280,-2.1200000,10240.00
1281,-2.1240000,10320.00
1282,-2.1280000,10240.00
1283,-2.1320000,10320.00
1284,-2.1360000,10240.00
1285,-2.1400000,10240.00
1286,-2.1440000,10320.00
1287,-2.1480000,10320.00
1288,-2.1520000,10240.00
1289,-2.1560000,10240.00
1290,-2.1600000,10240.00
1291,-2.1640000,10320.00
1292,-2.1680000,10320.00
1293,-2.1720000,10240.00
1294,-2.1760000,10240.00
1295,-2.1800000,10320.00
1296,-2.1840000,10240.00
1297,-2.1880000,10320.00
1298,-2.1920000,10240.00
1299,-2.1960000,10160.00
1300,-2.2000000,10240.00
1301,-2.2040000,10240.00
1302,-2.2080000,10240.00
1303,-2.2120000,10240.00
1304,-2.2160000,10320.00
1305,-2.2200000,10240.00
1306,-2.2240000,10240.00
1307,-2.2280000,10240.00
1308,-2.2320000,10320.00
1309,-2.2360000,10240.00
1310,-2.2400000,10240.00
1311,-2.2440000,10320.00
1312,-2.2480000,10320.00
1313,-2.2520000,10320.00
1314,-2.2560000,10240.00
1315,-2.2600000,10320.00
1316,-2.2640000,10240.00
1317,-2.2680000,10320.00
1318,-2.2720000,10240.00
1319,-2.2760000,10240.00
1320,-2.2800000,10240.00
1321,-2.2840000,10320.00
1322,-2.2880000,10320.00
1323,-2.2920000,10320.00
1324,-2.2960000,10240.00
1325,-2.3000000,10160.00
1326,-2.3040000,10240.00
1327,-2.3080000,10240.00
1328,-2.3120000,10240.00
1329,-2.3160000,10240.00
1330,-2.3200000,10240.00
1331,-2.3240000,10240.00
1332,-2.3280000,10160.00
1333,-2.3320000,10320.00
1334,-2.3360000,10240.00
1335,-2.3400000,10240.00
1336,-2.3440000,10240.00
1337,-2.3480000,10240.00
1338,-2.3520000,10240.00
1339,-2.3560000,10240.00
1340,-2.3600000,10320.00
1341,-2.3640000,10240.00
1342,-2.3680000,10240.00
1343,-2.3720000,10320.00
1344,-2.3760000,10320.00
1345,-2.3800000,10240.00
1346,-2.3840000,10320.00
1347,-2.3880000,10320.00
1348,-2.3920000,10320.00
1349,-2.3960000,10320.00
1350,-2.4000000,10320.00
1351,-2.4040000,10320.00
1352,-2.4080000,10320.00
1353,-2.4120000,10240.00
1354,-2.4160000,10240.00
1355,-2.4200000,10320.00
1356,-2.4240000,10240.00
1357,-2.4280000,10240.00
1358,-2.4320000,10240.00
1359,-2.4360000,10240.00
1360,-2.4400000,10240.00
1361,-2.4440000,10240.00
1362,-2.4480000,10320.00
1363,-2.4520000,10160.00
1364,-2.4560000,10240.00
1365,-2.4600000,10240.00
1366,-2.4640000,10240.00
1367,-2.4680000,10240.00
1368,-2.4720000,10240.00
1369,-2.4760000,10240.00
1370,-2.4800000,10240.00
1371,-2.4840000,10240.00
1372,-2.4880000,10320.00
1373,-2.4920000,10320.00
1374,-2.4960000,10320.00
1375,-2.5000000,10240.00
1376,-2.5040000,10240.00
1377,-2.5080000,10320.00
1378,-2.5120000,10320.00
1379,-2.5160000,10320.00
1380,-2.5200000,10240.00
1381,-2.5240000,10240.00
1382,-2.5280000,10320.00
1383,-2.5320000,10160.00
1384,-2.5360000,10320.00
1385,-2.5400000,10320.00
1386,-2.5440000,10240.00
1387,-2.5480000,10320.00
1388,-2.5520000,10240.00
1389,-2.5560000,10240.00
1390,-2.5600000,10160.00
1391,-2.5640000,10240.00
1392,-2.5680000,10160.00
1393,-2.5720000,10240.00
1394,-2.5760000,10240.00
1395,-2.5800000,10240.00
1396,-2.5840000,10320.00
1397,-2.5880000,10320.00
1398,-2.5920000,10240.00
1399,-2.5960000,10240.00
1400,-2.6000000,10320.00
1401,-2.6040000,10320.00
1402,-2.6080000,10320.00
1403,-2.6120000,10240.00
1404,-2.6160000,10240.00
1405,-2.6200000,10320.00
1406,-2.6240000,10320.00
1407,-2.6280000,10320.00
1408,-2.6320000,10240.00
1409,-2.6360000,10320.00
1410,-2.6400000,10240.00
1411,-2.6440000,10320.00
1412,-2.6480000,10320.00
1413,-2.6520000,10240.00
1414,-2.6560000,10320.00
1415,-2.6600000,10320.00
1416,-2.6640000,10160.00
1417,-2.6680000,10320.00
1418,-2.6720000,10240.00
1419,-2.6760000,10240.00
1420,-2.6800000,10240.00
1421,-2.6840000,10160.00
1422,-2.6880000,10240.00
1423,-2.6920000,10240.00
1424,-2.6960000,10240.00
1425,-2.7000000,10240.00
1426,-2.7040000,10320.00
1427,-2.7080000,10240.00
1428,-2.7120000,10240.00
1429,-2.7160000,10240.00
1430,-2.7200000,10320.00
1431,-2.7240000,10320.00
1432,-2.7280000,10240.00
1433,-2.7320000,10320.00
1434,-2.7360000,10320.00
1435,-2.7400000,10320.00
1436,-2.7440000,10320.00
1437,-2.7480000,10240.00
1438,-2.7520000,10320.00
1439,-2.7560000,10320.00
1440,-2.7600000,10320.00
1441,-2.7640000,10320.00
1442,-2.7680000,10240.00
1443,-2.7720000,10320.00
1444,-2.7760000,10240.00
1445,-2.7800000,10320.00
1446,-2.7840000,10320.00
1447,-2.7880000,10320.00
1448,-2.7920000,10240.00
1449,-2.7960000,10240.00
1450,-2.8000000,10240.00
1451,-2.8040000,10240.00
1452,-2.8080000,10240.00
1453,-2.8120000,10240.00
1454,-2.8160000,10240.00
1455,-2.8200000,10240.00
1456,-2.8240000,10240.00
1457,-2.8280000,10240.00
1458,-2.8320000,10160.00
1459,-2.8360000,10320.00
1460,-2.8400000,10240.00
1461,-2.8440000,10240.00
1462,-2.8480000,10320.00
1463,-2.8520000,10240.00
1464,-2.8560000,10240.00
1465,-2.8600000,10320.00
1466,-2.8640000,10320.00
1467,-2.8680000,10320.00
1468,-2.8720000,10240.00
1469,-2.8760000,10320.00
1470,-2.8800000,10320.00
1471,-2.8840000,10240.00
1472,-2.8880000,10320.00
1473,-2.8920000,10240.00
1474,-2.8960000,10320.00
1475,-2.9000000,10240.00
1476,-2.9040000,10160.00
1477,-2.9080000,10240.00
1478,-2.9120000,10240.00
1479,-2.9160000,10240.00
1480,-2.9200000,10240.00
1481,-2.9240000,10240.00
1482,-2.9280000,10320.00
1483,-2.9320000,10240.00
1484,-2.9360000,10320.00
1485,-2.9400000,10320.00
1486,-2.9440000,10240.00
1487,-2.9480000,10160.00
1488,-2.9520000,10320.00
1489,-2.9560000,10320.00
1490,-2.9600000,10320.00
1491,-2.9640000,10320.00
1492,-2.9680000,10320.00
1493,-2.9720000,10240.00
1494,-2.9760000,10320.00
1495,-2.9800000,10320.00
1496,-2.9840000,10240.00
1497,-2.9880000,10320.00
1498,-2.9920000,10320.00
1499,-2.9960000,10320.00
1500,-3.0000000,10320.00
1501,-3.0040000,10240.00
1502,-3.0080000,10240.00
1503,-3.0120000,10240.00
1504,-3.0160000,10320.00
1505,-3.0200000,10160.00
1506,-3.0240000,10240.00
1507,-3.0280000,10320.00
1508,-3.0320000,10320.00
1509,-3.0360000,10240.00
1510,-3.0400000,10160.00
1511,-3.0440000,10320.00
1512,-3.0480000,10240.00
1513,-3.0520000,10320.00
1514,-3.0560000,10320.00
1515,-3.0600000,10320.00
1516,-3.0640000,10320.00
1517,-3.0680000,10240.00
1518,-3.0720000,10320.00
1519,-3.0760000,10240.00
1520,-3.0800000,10320.00
1521,-3.0840000,10160.00
1522,-3.0880000,160.00
1523,-3.0920000,160.00
1524,-3.0960000,240.00
1525,-3.1000000,240.00
1526,-3.1040000,160.00
1527,-3.1080000,240.00
1528,-3.1120000,240.00
1529,-3.1160000,240.00
1530,-3.1200000,240.00
1531,-3.1240000,240.00
1532,-3.1280000,160.00
1533,-3.1320000,240.00
1534,-3.1360000,240.00
1535,-3.1400000,240.00
1536,-3.1440000,160.00
1537,-3.1480000,240.00
1538,-3.1520000,160.00
1539,-3.1560000,160.00
1540,-3.1600000,160.00
1541,-3.1640000,240.00
1542,-3.1680000,240.00
1543,-3.1720000,240.00
1544,-3.1760000,160.00
1545,-3.1800000,160.00
1546,-3.1840000,240.00
1547,-3.1880000,240.00
1548,-3.1920000,160.00
1549,-3.1960000,320.00
1550,-3.2000000,240.00
1551,-3.2040000,160.00
1552,-3.2080000,240.00
1553,-3.2120000,240.00
1554,-3.2160000,240.00
1555,-3.2200000,240.00
1556,-3.2240000,240.00
1557,-3.2280000,240.00
1558,-3.2320000,160.00
1559,-3.2360000,320.00
1560,-3.2400000,160.00
1561,-3.2440000,240.00
1562,-3.2480000,240.00
1563,-3.2520000,240.00
1564,-3.2560000,160.00
1565,-3.2600000,160.00
1566,-3.2640000,160.00
1567,-3.2680000,240.00
1568,-3.2720000,160.00
1569,-3.2760000,240.00
1570,-3.2800000,160.00
1571,-3.2840000,160.00
1572,-3.2880000,240.00
1573,-3.2920000,240.00
1574,-3.2960000,160.00
1575,-3.3000000,240.00
1576,-3.3040000,240.00
1577,-3.3080000,240.00
1578,-3.3120000,240.00
1579,-3.3160000,240.00
1580,-3.3200000,160.00
1581,-3.3240000,160.00
1582,-3.3280000,160.00
1583,-3.3320000,240.00
1584,-3.3360000,160.00
1585,-3.3400000,240.00
1586,-3.3440000,240.00
1587,-3.3480000,240.00
1588,-3.3520000,240.00
1589,-3.3560000,160.00
1590,-3.3600000,240.00
1591,-3.3640000,240.00
1592,-3.3680000,240.00
1593,-3.3720000,240.00
1594,-3.3760000,240.00
1595,-3.3800000,240.00
1596,-3.3840000,240.00
1597,-3.3880000,160.00
1598,-3.3920000,160.00
1599,-3.3960000,160.00
1600,-3.4000000,160.00
1601,-3.4040000,240.00
1602,-3.4080000,240.00
1603,-3.4120000,320.00
1604,-3.4160000,240.00
1605,-3.4200000,240.00
1606,-3.4240000,240.00
1607,-3.4280000,240.00
1608,-3.4320000,240.00
1609,-3.4360000,240.00
1610,-3.4400000,240.00
1611,-3.4440000,160.00
1612,-3.4480000,240.00
1613,-3.4520000,240.00
1614,-3.4560000,320.00
1615,-3.4600000,240.00
1616,-3.4640000,240.00
1617,-3.4680000,240.00
1618,-3.4720000,160.00
1619,-3.4760000,160.00
1620,-3.4800000,240.00
1621,-3.4840000,240.00
1622,-3.4880000,240.00
1623,-3.4920000,240.00
1624,-3.4960000,240.00
1625,-3.5000000,240.00
1626,-3.5040000,240.00
1627,-3.5080000,160.00
1628,-3.5120000,240.00
1629,-3.5160000,160.00
1630,-3.5200000,240.00
1631,-3.5240000,240.00
1632,-3.5280000,240.00
1633,-3.5320000,240.00
1634,-3.5360000,240.00
1635,-3.5400000,240.00
1636,-3.5440000,240.00
1637,-3.5480000,240.00
1638,-3.5520000,160.00
1639,-3.5560000,160.00
1640,-3.5600000,240.00
1641,-3.5640000,240.00
1642,-3.5680000,320.00
1643,-3.5720000,240.00
1644,-3.5760000,160.00
1645,-3.5800000,240.00
1646,-3.5840000,240.00
1647,-3.5880000,240.00
1648,-3.5920000,240.00
1649,-3.5960000,240.00
1650,-3.6000000,160.00
1651,-3.6040000,160.00
1652,-3.6080000,160.00
1653,-3.6120000,160.00
1654,-3.6160000,240.00
1655,-3.6200000,160.00
1656,-3.6240000,240.00
1657,-3.6280000,160.00
1658,-3.6320000,160.00
1659,-3.6360000,80.00
1660,-3.6400000,160.00
1661,-3.6440000,160.00
1662,-3.6480000,160.00
1663,-3.6520000,160.00
1664,-3.6560000,80.00
1665,-3.6600000,240.00
1666,-3.6640000,240.00
1667,-3.6680000,240.00
1668,-3.6720000,560.00
1669,-3.6760000,7440.00
1670,-3.6800000,9440.00
1671,-3.6840000,9920.00
1672,-3.6880000,10160.00
1673,-3.6920000,10240.00
1674,-3.6960000,10240.00
1675,-3.7000000,10320.00
1676,-3.7040000,10320.00
1677,-3.7080000,10320.00
1678,-3.7120000,10320.00
1679,-3.7160000,10160.00
1680,-3.7200000,10320.00
1681,-3.7240000,10240.00
1682,-3.7280000,10240.00
1683,-3.7320000,10240.00
1684,-3.7360000,10240.00
1685,-3.7400000,10240.00
1686,-3.7440000,10240.00
1687,-3.7480000,10240.00
1688,-3.7520000,10320.00
1689,-3.7560000,10240.00
1690,-3.7600000,10320.00
1691,-3.7640000,10320.00
1692,-3.7680000,10320.00
1693,-3.7720000,10240.00
1694,-3.7760000,10320.00
1695,-3.7800000,10240.00
1696,-3.7840000,10240.00
1697,-3.7880000,10320.00
1698,-3.7920000,10320.00
1699,-3.7960000,10240.00
1700,-3.8000000,10240.00
1701,-3.8040000,10320.00
1702,-3.8080000,10320.00
1703,-3.8120000,10240.00
1704,-3.8160000,10320.00
1705,-3.8200000,10320.00
1706,-3.8240000,10320.00
1707,-3.8280000,10240.00
1708,-3.8320000,10240.00
1709,-3.8360000,10240.00
1710,-3.8400000,10320.00
1711,-3.8440000,10240.00
1712,-3.8480000,10240.00
1713,-3.8520000,10160.00
1714,-3.8560000,10240.00
1715,-3.8600000,10320.00
1716,-3.8640000,10240.00
1717,-3.8680000,10240.00
1718,-3.8720000,10240.00
1719,-3.8760000,10240.00
1720,-3.8800000,10320.00
1721,-3.8840000,10320.00
1722,-3.8880000,10240.00
1723,-3.8920000,10320.00
1724,-3.8960000,10240.00
1725,-3.9000000,10320.00
1726,-3.9040000,10320.00
1727,-3.9080000,10320.00
1728,-3.9120000,10240.00
1729,-3.9160000,10320.00
1730,-3.9200000,10240.00
1731,-3.9240000,10320.00
1732,-3.9280000,10240.00
1733,-3.9320000,10320.00
1734,-3.9360000,10320.00
1735,-3.9400000,10320.00
1736,-3.9440000,10240.00
1737,-3.9480000,10240.00
1738,-3.9520000,10240.00
1739,-3.9560000,10240.00
1740,-3.9600000,10320.00
1741,-3.9640000,10240.00
1742,-3.9680000,10160.00
1743,-3.9720000,10240.00
1744,-3.9760000,10240.00
1745,-3.9800000,10160.00
1746,-3.9840000,10240.00
1747,-3.9880000,10160.00
1748,-3.9920000,10240.00
1749,-3.9960000,10320.00
1750,-4.0000000,10240.00
1751,-4.0040000,10320.00
1752,-4.0080000,10240.00
1753,-4.0120000,10320.00
1754,-4.0160000,10240.00
1755,-4.0200000,10320.00
1756,-4.0240000,10320.00
1757,-4.0280000,10240.00
1758,-4.0320000,10320.00
1759,-4.0360000,10320.00
1760,-4.0400000,10320.00
1761,-4.0440000,10320.00
1762,-4.0480000,10240.00
1763,-4.0520000,10320.00
1764,-4.0560000,10320.00
1765,-4.0600000,10320.00
1766,-4.0640000,10320.00
1767,-4.0680000,10240.00
1768,-4.0720000,10160.00
1769,-4.0760000,10320.00
1770,-4.0800000,10240.00
1771,-4.0840000,10320.00
1772,-4.0880000,10240.00
1773,-4.0920000,10240.00
1774,-4.0960000,10240.00
1775,-4.1000000,10240.00
1776,-4.1040000,10240.00
1777,-4.1080000,10240.00
1778,-4.1120000,10240.00
1779,-4.1160000,10320.00
1780,-4.1200000,10320.00
1781,-4.1240000,10240.00
1782,-4.1280000,10320.00
1783,-4.1320000,10240.00
1784,-4.1360000,10320.00
1785,-4.1400000,10240.00
1786,-4.1440000,10240.00
1787,-4.1480000,10320.00
1788,-4.1520000,10320.00
1789,-4.1560000,10320.00
1790,-4.1600000,10320.00
1791,-4.1640000,10320.00
1792,-4.1680000,10320.00
1793,-4.1720000,10240.00
1794,-4.1760000,10240.00
1795,-4.1800000,10240.00
1796,-4.1840000,10320.00
1797,-4.1880000,10240.00
1798,-4.1920000,10320.00
1799,-4.1960000,10240.00
1800,-4.2000000,10240.00
1801,-4.2040000,10320.00
1802,-4.2080000,10240.00
1803,-4.2120000,10240.00
1804,-4.2160000,10240.00
1805,-4.2200000,10160.00
1806,-4.2240000,10320.00
1807,-4.2280000,10240.00
1808,-4.2320000,10240.00
1809,-4.2360000,10320.00
1810,-4.2400000,10320.00
1811,-4.2440000,10160.00
1812,-4.2480000,10320.00
1813,-4.2520000,10240.00
1814,-4.2560000,10320.00
1815,-4.2600000,10320.00
1816,-4.2640000,10320.00
1817,-4.2680000,10320.00
1818,-4.2720000,10320.00
1819,-4.2760000,10320.00
1820,-4.2800000,10240.00
1821,-4.2840000,10320.00
1822,-4.2880000,10240.00
1823,-4.2920000,10320.00
1824,-4.2960000,10320.00
1825,-4.3000000,10240.00
1826,-4.3040000,10240.00
1827,-4.3080000,10320.00
1828,-4.3120000,10160.00
1829,-4.3160000,10240.00
1830,-4.3200000,10320.00
1831,-4.3240000,10240.00
1832,-4.3280000,10240.00
1833,-4.3320000,10240.00
1834,-4.3360000,10240.00
1835,-4.3400000,10240.00
1836,-4.3440000,10240.00
1837,-4.3480000,10240.00
1838,-4.3520000,10320.00
1839,-4.3560000,10320.00
1840,-4.3600000,10240.00
1841,-4.3640000,10320.00
1842,-4.3680000,160.00
1843,-4.3720000,160.00
1844,-4.3760000,240.00
1845,-4.3800000,240.00
1846,-4.3840000,240.00
1847,-4.3880000,240.00
1848,-4.3920000,240.00
1849,-4.3960000,240.00
1850,-4.4000000,240.00
1851,-4.4040000,240.00
1852,-4.4080000,240.00
1853,-4.4120000,240.00
1854,-4.4160000,240.00
1855,-4.4200000,240.00
1856,-4.4240000,160.00
1857,-4.4280000,160.00
1858,-4.4320000,240.00
1859,-4.4360000,240.00
1860,-4.4400000,240.00
1861,-4.4440000,160.00
1862,-4.4480000,240.00
1863,-4.4520000,240.00
1864,-4.4560000,240.00
1865,-4.4600000,240.00
1866,-4.4640000,240.00
1867,-4.4680000,240.00
1868,-4.4720000,160.00
1869,-4.4760000,240.00
1870,-4.4800000,240.00
1871,-4.4840000,160.00
1872,-4.4880000,240.00
1873,-4.4920000,160.00
1874,-4.4960000,160.00
1875,-4.5000000,240.00
1876,-4.5040000,240.00
1877,-4.5080000,160.00
1878,-4.5120000,240.00
1879,-4.5160000,240.00
1880,-4.5200000,320.00
1881,-4.5240000,240.00
1882,-4.5280000,160.00
1883,-4.5320000,240.00
1884,-4.5360000,240.00
1885,-4.5400000,240.00
1886,-4.5440000,240.00
1887,-4.5480000,240.00
1888,-4.5520000,240.00
1889,-4.5560000,240.00
1890,-4.5600000,240.00
1891,-4.5640000,240.00
1892,-4.5680000,240.00
1893,-4.5720000,240.00
1894,-4.5760000,240.00
1895,-4.5800000,160.00
1896,-4.5840000,160.00
1897,-4.5880000,160.00
1898,-4.5920000,160.00
1899,-4.5960000,240.00
1900,-4.6000000,240.00
1901,-4.6040000,240.00
1902,-4.6080000,240.00
1903,-4.6120000,240.00
1904,-4.6160000,240.00
1905,-4.6200000,160.00
1906,-4.6240000,160.00
1907,-4.6280000,240.00
1908,-4.6320000,240.00
1909,-4.6360000,240.00
1910,-4.6400000,240.00
1911,-4.6440000,240.00
1912,-4.6480000,320.00
1913,-4.6520000,240.00
1914,-4.6560000,160.00
1915,-4.6600000,160.00
1916,-4.6640000,160.00
1917,-4.6680000,240.00
1918,-4.6720000,160.00
1919,-4.6760000,240.00
1920,-4.6800000,240.00
1921,-4.6840000,240.00
1922,-4.6880000,240.00
1923,-4.6920000,240.00
1924,-4.6960000,240.00
1925,-4.7000000,160.00
1926,-4.7040000,320.00
1927,-4.7080000,240.00
1928,-4.7120000,240.00
1929,-4.7160000,240.00
1930,-4.7200000,160.00
1931,-4.7240000,240.00
1932,-4.7280000,240.00
1933,-4.7320000,320.00
1934,-4.7360000,240.00
1935,-4.7400000,240.00
1936,-4.7440000,240.00
1937,-4.7480000,240.00
1938,-4.7520000,240.00
1939,-4.7560000,160.00
1940,-4.7600000,240.00
1941,-4.7640000,240.00
1942,-4.7680000,240.00
1943,-4.7720000,160.00
1944,-4.7760000,240.00
1945,-4.7800000,240.00
1946,-4.7840000,240.00
1947,-4.7880000,320.00
1948,-4.7920000,240.00
1949,-4.7960000,240.00
1950,-4.8000000,240.00
1951,-4.8040000,240.00
1952,-4.8080000,240.00
1953,-4.8120000,320.00
1954,-4.8160000,240.00
1955,-4.8200000,240.00
1956,-4.8240000,320.00
1957,-4.8280000,240.00
1958,-4.8320000,240.00
1959,-4.8360000,240.00
1960,-4.8400000,240.00
1961,-4.8440000,320.00
1962,-4.8480000,320.00
1963,-4.8520000,240.00
1964,-4.8560000,240.00
1965,-4.8600000,320.00
1966,-4.8640000,240.00
1967,-4.8680000,240.00
1968,-4.8720000,240.00
1969,-4.8760000,240.00
1970,-4.8800000,240.00
1971,-4.8840000,240.00
1972,-4.8880000,240.00
1973,-4.8920000,240.00
1974,-4.8960000,240.00
1975,-4.9000000,240.00
1976,-4.9040000,160.00
1977,-4.9080000,240.00
1978,-4.9120000,240.00
1979,-4.9160000,160.00
1980,-4.9200000,160.00
1981,-4.9240000,160.00
1982,-4.9280000,240.00
1983,-4.9320000,240.00
1984,-4.9360000,240.00
1985,-4.9400000,240.00
1986,-4.9440000,240.00
1987,-4.9480000,240.00
1988,-4.9520000,400.00
1989,-4.9560000,6720.00
1990,-4.9600000,9280.00
1991,-4.9640000,10000.00
1992,-4.9680000,10160.00
1993,-4.9720000,10240.00
1994,-4.9760000,10240.00
1995,-4.9800000,10240.00
1996,-4.9840000,10240.00
1997,-4.9880000,10240.00
1998,-4.9920000,10320.00
1999,-4.9960000,10320.00
2000,-5.0000000,10240.00
2001,-5.0040000,10320.00
2002,-5.0080000,10320.00
2003,-5.0120000,10240.00
2004,-5.0160000,10320.00
2005,-5.0200000,10160.00
2006,-5.0240000,10240.00
2007,-5.0280000,10240.00
2008,-5.0320000,10240.00
2009,-5.0360000,10240.00
2010,-5.0400000,10240.00
2011,-5.0440000,10320.00
2012,-5.0480000,10240.00
2013,-5.0520000,10320.00
2014,-5.0560000,10240.00
2015,-5.0600000,10320.00
2016,-5.0640000,10240.00
2017,-5.0680000,10320.00
2018,-5.0720000,10240.00
2019,-5.0760000,10240.00
2020,-5.0800000,10320.00
2021,-5.0840000,10320.00
2022,-5.0880000,10320.00
2023,-5.0920000,10320.00
2024,-5.0960000,10320.00
2025,-5.1000000,10320.00
2026,-5.1040000,10320.00
2027,-5.1080000,10320.00
2028,-5.1120000,10320.00
2029,-5.1160000,10320.00
2030,-5.1200000,10240.00
2031,-5.1240000,10320.00
2032,-5.1280000,10240.00
2033,-5.1320000,10240.00
2034,-5.1360000,10320.00
2035,-5.1400000,10240.00
2036,-5.1440000,10320.00
2037,-5.1480000,10240.00
2038,-5.1520000,10320.00
2039,-5.1560000,10320.00
2040,-5.1600000,10320.00
2041,-5.1640000,10240.00
2042,-5.1680000,10320.00
2043,-5.1720000,10320.00
2044,-5.1760000,10320.00
2045,-5.1800000,10320.00
2046,-5.1840000,10240.00
2047,-5.1880000,10240.00
2048,-5.1920000,10240.00
2049,-5.1960000,10320.00
2050,-5.2000000,10320.00
2051,-5.2040000,10240.00
2052,-5.2080000,10240.00
2053,-5.2120000,10240.00
2054,-5.2160000,10320.00
2055,-5.2200000,10320.00
2056,-5.2240000,10240.00
2057,-5.2280000,10240.00
2058,-5.2320000,10240.00
2059,-5.2360000,10240.00
2060,-5.2400000,10240.00
2061,-5.2440000,10240.00
2062,-5.2480000,10240.00
2063,-5.2520000,10240.00
2064,-5.2560000,10240.00
2065,-5.2600000,10240.00
2066,-5.2640000,10160.00
2067,-5.2680000,10240.00
2068,-5.2720000,10240.00
2069,-5.2760000,10240.00
2070,-5.2800000,10240.00
2071,-5.2840000,10320.00
2072,-5.2880000,10320.00
2073,-5.2920000,10240.00
2074,-5.2960000,10320.00
2075,-5.3000000,10320.00
2076,-5.3040000,10240.00
2077,-5.3080000,10320.00
2078,-5.3120000,10320.00
2079,-5.3160000,10320.00
2080,-5.3200000,10320.00
2081,-5.3240000,10320.00
2082,-5.3280000,10240.00
2083,-5.3320000,10320.00
2084,-5.3360000,10320.00
2085,-5.3400000,10320.00
2086,-5.3440000,10320.00
2087,-5.3480000,10320.00
2088,-5.3520000,10320.00
2089,-5.3560000,10320.00
2090,-5.3600000,10240.00
2091,-5.3640000,10160.00
2092,-5.3680000,10160.00
2093,-5.3720000,10240.00
2094,-5.3760000,10240.00
2095,-5.3800000,10320.00
2096,-5.3840000,10240.00
2097,-5.3880000,10240.00
2098,-5.3920000,10240.00
2099,-5.3960000,10160.00
2100,-5.4000000,10240.00
2101,-5.4040000,10320.00
2102,-5.4080000,10240.00
2103,-5.4120000,10240.00
2104,-5.4160000,10320.00
2105,-5.4200000,10240.00
2106,-5.4240000,10320.00
2107,-5.4280000,10240.00
2108,-5.4320000,10320.00
2109,-5.4360000,10320.00
2110,-5.4400000,10320.00
2111,-5.4440000,10320.00
2112,-5.4480000,10320.00
2113,-5.4520000,10240.00
2114,-5.4560000,10320.00
2115,-5.4600000,10320.00
2116,-5.4640000,10320.00
2117,-5.4680000,10240.00
2118,-5.4720000,10240.00
2119,-5.4760000,10160.00
2120,-5.4800000,10240.00
2121,-5.4840000,10320.00
2122,-5.4880000,10320.00
2123,-5.4920000,10240.00
2124,-5.4960000,10320.00
2125,-5.5000000,10320.00
2126,-5.5040000,10240.00
2127,-5.5080000,10320.00
2128,-5.5120000,10320.00
2129,-5.5160000,10240.00
2130,-5.5200000,10320.00
2131,-5.5240000,10240.00
2132,-5.5280000,10320.00
2133,-5.5320000,10320.00
2134,-5.5360000,10320.00
2135,-5.5400000,10320.00
2136,-5.5440000,10240.00
2137,-5.5480000,10320.00
2138,-5.5520000,10320.00
2139,-5.5560000,10320.00
2140,-5.5600000,10320.00
2141,-5.5640000,10240.00
2142,-5.5680000,10320.00
2143,-5.5720000,10320.00
2144,-5.5760000,10320.00
2145,-5.5800000,10320.00
2146,-5.5840000,10320.00
2147,-5.5880000,10320.00
2148,-5.5920000,10240.00
2149,-5.5960000,10240.00
2150,-5.6000000,10240.00
2151,-5.6040000,10240.00
2152,-5.6080000,10160.00
2153,-5.6120000,10240.00
2154,-5.6160000,10240.00
2155,-5.6200000,10240.00
2156,-5.6240000,10160.00
2157,-5.6280000,10160.00
2158,-5.6320000,10240.00
2159,-5.6360000,10240.00
2160,-5.6400000,10240.00
2161,-5.6440000,10240.00
2162,-5.6480000,160.00
2163,-5.6520000,240.00
2164,-5.6560000,160.00
2165,-5.6600000,240.00
2166,-5.6640000,240.00
2167,-5.6680000,240.00
2168,-5.6720000,240.00
2169,-5.6760000,240.00
2170,-5.6800000,240.00
2171,-5.6840000,320.00
2172,-5.6880000,320.00
2173,-5.6920000,160.00
2174,-5.6960000,160.00
2175,-5.7000000,160.00
2176,-5.7040000,160.00
2177,-5.7080000,160.00
2178,-5.7120000,240.00
2179,-5.7160000,160.00
2180,-5.7200000,160.00
2181,-5.7240000,240.00
2182,-5.7280000,160.00
2183,-5.7320000,160.00
2184,-5.7360000,160.00
2185,-5.7400000,160.00
2186,-5.7440000,160.00
2187,-5.7480000,240.00
2188,-5.7520000,240.00
2189,-5.7560000,240.00
2190,-5.7600000,240.00
2191,-5.7640000,240.00
2192,-5.7680000,240.00
2193,-5.7720000,160.00
2194,-5.7760000,240.00
2195,-5.7800000,240.00
2196,-5.7840000,160.00
2197,-5.7880000,240.00
2198,-5.7920000,240.00
2199,-5.7960000,240.00
2200,-5.8000000,320.00
2201,-5.8040000,240.00
2202,-5.8080000,240.00
2203,-5.8120000,160.00
2204,-5.8160000,160.00
2205,-5.8200000,160.00
2206,-5.8240000,240.00
2207,-5.8280000,240.00
2208,-5.8320000,240.00
2209,-5.8360000,240.00
2210,-5.8400000,160.00
2211,-5.8440000,240.00
2212,-5.8480000,240.00
2213,-5.8520000,240.00
2214,-5.8560000,240.00
2215,-5.8600000,240.00
2216,-5.8640000,160.00
2217,-5.8680000,240.00
2218,-5.8720000,240.00
2219,-5.8760000,160.00
2220,-5.8800000,240.00
2221,-5.8840000,320.00
2222,-5.8880000,320.00
2223,-5.8920000,240.00
2224,-5.8960000,240.00
2225,-5.9000000,240.00
2226,-5.9040000,240.00
2227,-5.9080000,240.00
2228,-5.9120000,240.00
2229,-5.9160000,240.00
2230,-5.9200000,240.00
2231,-5.9240000,240.00
2232,-5.9280000,240.00
2233,-5.9320000,320.00
2234,-5.9360000,240.00
2235,-5.9400000,240.00
2236,-5.9440000,240.00
2237,-5.9480000,240.00
2238,-5.9520000,240.00
2239,-5.9560000,240.00
2240,-5.9600000,240.00
2241,-5.9640000,240.00
2242,-5.9680000,240.00
2243,-5.9720000,160.00
2244,-5.9760000,160.00
2245,-5.9800000,240.00
2246,-5.9840000,240.00
2247,-5.9880000,240.00
2248,-5.9920000,240.00
2249,-5.9960000,240.00
2250,-6.0000000,240.00
2251,-6.0040000,240.00
2252,-6.0080000,240.00
2253,-6.0120000,240.00
2254,-6.0160000,240.00
2255,-6.0200000,240.00
2256,-6.0240000,320.00
2257,-6.0280000,240.00
2258,-6.0320000,240.00
2259,-6.0360000,320.00
2260,-6.0400000,240.00
2261,-6.0440000,240.00
2262,-6.0480000,240.00
2263,-6.0520000,240.00
2264,-6.0560000,320.00
2265,-6.0600000,320.00
2266,-6.0640000,240.00
2267,-6.0680000,240.00
2268,-6.0720000,240.00
2269,-6.0760000,240.00
2270,-6.0800000,240.00
2271,-6.0840000,160.00
2272,-6.0880000,160.00
2273,-6.0920000,240.00
2274,-6.0960000,160.00
2275,-6.1000000,160.00
2276,-6.1040000,320.00
2277,-6.1080000,6160.00
2278,-6.1120000,9120.00
2279,-6.1160000,9920.00
2280,-6.1200000,10160.00
2281,-6.1240000,10160.00
2282,-6.1280000,10160.00
2283,-6.1320000,10160.00
2284,-6.1360000,10240.00
2285,-6.1400000,10320.00
2286,-6.1440000,10240.00
2287,-6.1480000,10160.00
2288,-6.1520000,10320.00
2289,-6.1560000,10240.00
2290,-6.1600000,1840.00
2291,-6.1640000,240.00
2292,-6.1680000,240.00
2293,-6.1720000,240.00
2294,-6.1760000,240.00
2295,-6.1800000,240.00
2296,-6.1840000,160.00
2297,-6.1880000,240.00
2298,-6.1920000,240.00
2299,-6.1960000,240.00
2300,-6.2000000,240.00
2301,-6.2040000,240.00
2302,-6.2080000,240.00
2303,-6.2120000,240.00
2304,-6.2160000,240.00
2305,-6.2200000,240.00
2306,-6.2240000,240.00
2307,-6.2280000,240.00
2308,-6.2320000,480.00
2309,-6.2360000,6080.00
2310,-6.2400000,9120.00
2311,-6.2440000,9920.00
2312,-6.2480000,10080.00
2313,-6.2520000,10160.00
2314,-6.2560000,10240.00
2315,-6.2600000,10240.00
2316,-6.2640000,10320.00
2317,-6.2680000,10240.00
2318,-6.2720000,10240.00
2319,-6.2760000,10240.00
2320,-6.2800000,10240.00
2321,-6.2840000,10240.00
2322,-6.2880000,10240.00
2323,-6.2920000,10240.00
2324,-6.2960000,10240.00
2325,-6.3000000,10320.00
2326,-6.3040000,10240.00
2327,-6.3080000,10320.00
2328,-6.3120000,10240.00
2329,-6.3160000,10240.00
2330,-6.3200000,10320.00
2331,-6.3240000,10320.00
2332,-6.3280000,10320.00
2333,-6.3320000,10240.00
2334,-6.3360000,10240.00
2335,-6.3400000,10240.00
2336,-6.3440000,10160.00
2337,-6.3480000,10240.00
2338,-6.3520000,10320.00
2339,-6.3560000,10320.00
2340,-6.3600000,10240.00
2341,-6.3640000,10320.00
2342,-6.3680000,10320.00
2343,-6.3720000,10240.00
2344,-6.3760000,10240.00
2345,-6.3800000,10320.00
2346,-6.3840000,10240.00
2347,-6.3880000,10240.00
2348,-6.3920000,10320.00
2349,-6.3960000,10240.00
2350,-6.4000000,10320.00
2351,-6.4040000,10320.00
2352,-6.4080000,10240.00
2353,-6.4120000,10240.00
2354,-6.4160000,10160.00
2355,-6.4200000,10240.00
2356,-6.4240000,10240.00
2357,-6.4280000,10240.00
2358,-6.4320000,10240.00
2359,-6.4360000,10160.00
2360,-6.4400000,10240.00
2361,-6.4440000,10240.00
2362,-6.4480000,10320.00
2363,-6.4520000,10320.00
2364,-6.4560000,10320.00
2365,-6.4600000,10320.00
2366,-6.4640000,10240.00
2367,-6.4680000,10320.00
2368,-6.4720000,10320.00
2369,-6.4760000,10320.00
2370,-6.4800000,10320.00
2371,-6.4840000,10240.00
2372,-6.4880000,10240.00
2373,-6.4920000,10160.00
2374,-6.4960000,10240.00
2375,-6.5000000,10240.00
2376,-6.5040000,10320.00
2377,-6.5080000,10240.00
2378,-6.5120000,10240.00
2379,-6.5160000,10240.00
2380,-6.5200000,10320.00
2381,-6.5240000,10240.00
2382,-6.5280000,10240.00
2383,-6.5320000,10240.00
2384,-6.5360000,10240.00
2385,-6.5400000,10160.00
2386,-6.5440000,10240.00
2387,-6.5480000,10240.00
2388,-6.5520000,10240.00
2389,-6.5560000,10240.00
2390,-6.5600000,10240.00
2391,-6.5640000,10240.00
2392,-6.5680000,10240.00
2393,-6.5720000,10160.00
2394,-6.5760000,10240.00
2395,-6.5800000,10320.00
2396,-6.5840000,10320.00
2397,-6.5880000,10320.00
2398,-6.5920000,10320.00
2399,-6.5960000,10240.00
2400,-6.6000000,10320.00
2401,-6.6040000,10320.00
2402,-6.6080000,10240.00
2403,-6.6120000,10240.00
2404,-6.6160000,10240.00
2405,-6.6200000,10240.00
2406,-6.6240000,10320.00
2407,-6.6280000,10240.00
2408,-6.6320000,10240.00
2409,-6.6360000,10320.00
2410,-6.6400000,10160.00
2411,-6.6440000,10240.00
2412,-6.6480000,10320.00
2413,-6.6520000,10240.00
2414,-6.6560000,10240.00
2415,-6.6600000,10240.00
2416,-6.6640000,10160.00
2417,-6.6680000,10160.00
2418,-6.6720000,10240.00
2419,-6.6760000,10240.00
2420,-6.6800000,10240.00
2421,-6.6840000,10240.00
2422,-6.6880000,10240.00
2423,-6.6920000,10240.00
2424,-6.6960000,10240.00
2425,-6.7000000,10240.00
2426,-6.7040000,10240.00
2427,-6.7080000,10240.00
2428,-6.7120000,10240.00
2429,-6.7160000,10240.00
2430,-6.7200000,10240.00
2431,-6.7240000,10240.00
2432,-6.7280000,10320.00
2433,-6.7320000,10320.00
2434,-6.7360000,10320.00
2435,-6.7400000,10320.00
2436,-6.7440000,10320.00
2437,-6.7480000,10240.00
2438,-6.7520000,10320.00
2439,-6.7560000,10320.00
2440,-6.7600000,10240.00
2441,-6.7640000,10240.00
2442,-6.7680000,10240.00
2443,-6.7720000,10240.00
2444,-6.7760000,10240.00
2445,-6.7800000,10240.00
2446,-6.7840000,10320.00
2447,-6.7880000,10240.00
2448,-6.7920000,10240.00
2449,-6.7960000,10240.00
2450,-6.8000000,10240.00
2451,-6.8040000,10320.00
2452,-6.8080000,10240.00
2453,-6.8120000,10240.00
2454,-6.8160000,10240.00
2455,-6.8200000,10240.00
2456,-6.8240000,10240.00
2457,-6.8280000,10240.00
2458,-6.8320000,10240.00
2459,-6.8360000,10400.00
2460,-6.8400000,10320.00
2461,-6.8440000,10320.00
2462,-6.8480000,10240.00
2463,-6.8520000,10240.00
2464,-6.8560000,10240.00
2465,-6.8600000,10240.00
2466,-6.8640000,10320.00
2467,-6.8680000,10320.00
2468,-6.8720000,10320.00
2469,-6.8760000,10240.00
2470,-6.8800000,10320.00
2471,-6.8840000,10320.00
2472,-6.8880000,10240.00
2473,-6.8920000,10240.00
2474,-6.8960000,10240.00
2475,-6.9000000,10320.00
2476,-6.9040000,10240.00
2477,-6.9080000,10240.00
2478,-6.9120000,10320.00
2479,-6.9160000,10240.00
2480,-6.9200000,10320.00
2481,-6.9240000,10160.00
2482,-6.9280000,10240.00
2483,-6.9320000,160.00
2484,-6.9360000,160.00
2485,-6.9400000,160.00
2486,-6.9440000,240.00
2487,-6.9480000,160.00
2488,-6.9520000,160.00
2489,-6.9560000,240.00
2490,-6.9600000,160.00
2491,-6.9640000,240.00
2492,-6.9680000,160.00
2493,-6.9720000,240.00
2494,-6.9760000,240.00
2495,-6.9800000,320.00
2496,-6.9840000,240.00
2497,-6.9880000,240.00
2498,-6.9920000,240.00
2499,-6.9960000,160.00
2500,-7.0000000,240.00
2501,-7.0040000,240.00
2502,-7.0080000,240.00
2503,-7.0120000,160.00
2504,-7.0160000,160.00
2505,-7.0200000,160.00
2506,-7.0240000,240.00
2507,-7.0280000,240.00
2508,-7.0320000,160.00
2509,-7.0360000,160.00
2510,-7.0400000,240.00
2511,-7.0440000,240.00
2512,-7.0480000,240.00
2513,-7.0520000,240.00
2514,-7.0560000,240.00
2515,-7.0600000,160.00
2516,-7.0640000,160.00
2517,-7.0680000,160.00
2518,-7.0720000,160.00
2519,-7.0760000,160.00
2520,-7.0800000,240.00
2521,-7.0840000,240.00
2522,-7.0880000,240.00
2523,-7.0920000,160.00
2524,-7.0960000,160.00
2525,-7.1000000,240.00
2526,-7.1040000,240.00
2527,-7.1080000,240.00
2528,-7.1120000,240.00
2529,-7.1160000,240.00
2530,-7.1200000,240.00
2531,-7.1240000,160.00
2532,-7.1280000,160.00
2533,-7.1320000,160.00
2534,-7.1360000,160.00
2535,-7.1400000,160.00
2536,-7.1440000,160.00
2537,-7.1480000,240.00
2538,-7.1520000,240.00
2539,-7.1560000,240.00
2540,-7.1600000,160.00
2541,-7.1640000,160.00
2542,-7.1680000,160.00
2543,-7.1720000,160.00
2544,-7.1760000,240.00
2545,-7.1800000,240.00
2546,-7.1840000,240.00
2547,-7.1880000,160.00
2548,-7.1920000,160.00
2549,-7.1960000,240.00
2550,-7.2000000,240.00
2551,-7.2040000,160.00
2552,-7.2080000,160.00
2553,-7.2120000,240.00
2554,-7.2160000,240.00
2555,-7.2200000,320.00
2556,-7.2240000,240.00
2557,-7.2280000,240.00
2558,-7.2320000,240.00
2559,-7.2360000,240.00
2560,-7.2400000,240.00
2561,-7.2440000,240.00
2562,-7.2480000,240.00
2563,-7.2520000,240.00
2564,-7.2560000,320.00
2565,-7.2600000,5520.00
2566,-7.2640000,8880.00
2567,-7.2680000,9840.00
2568,-7.2720000,10080.00
2569,-7.2760000,10160.00
2570,-7.2800000,10240.00
2571,-7.2840000,10240.00
2572,-7.2880000,10320.00
2573,-7.2920000,10240.00
2574,-7.2960000,10320.00
2575,-7.3000000,10240.00
2576,-7.3040000,10240.00
2577,-7.3080000,10240.00
2578,-7.3120000,10320.00
2579,-7.3160000,160.00
2580,-7.3200000,160.00
2581,-7.3240000,160.00
2582,-7.3280000,160.00
2583,-7.3320000,240.00
2584,-7.3360000,240.00
2585,-7.3400000,240.00
2586,-7.3440000,160.00
2587,-7.3480000,240.00
2588,-7.3520000,160.00
2589,-7.3560000,240.00
2590,-7.3600000,160.00
2591,-7.3640000,160.00
2592,-7.3680000,160.00
2593,-7.3720000,160.00
2594,-7.3760000,160.00
2595,-7.3800000,240.00
2596,-7.3840000,320.00
2597,-7.3880000,5280.00
2598,-7.3920000,8880.00
2599,-7.3960000,9840.00
2600,-7.4000000,10080.00
2601,-7.4040000,10240.00
2602,-7.4080000,10160.00
2603,-7.4120000,10160.00
2604,-7.4160000,10240.00
2605,-7.4200000,10240.00
2606,-7.4240000,10320.00
2607,-7.4280000,10320.00
2608,-7.4320000,10320.00
2609,-7.4360000,10240.00
2610,-7.4400000,10320.00
2611,-7.4440000,10320.00
2612,-7.4480000,10320.00
2613,-7.4520000,10320.00
2614,-7.4560000,10240.00
2615,-7.4600000,10240.00
2616,-7.4640000,10240.00
2617,-7.4680000,10320.00
2618,-7.4720000,10320.00
2619,-7.4760000,10240.00
2620,-7.4800000,10320.00
2621,-7.4840000,10320.00
2622,-7.4880000,10240.00
2623,-7.4920000,10160.00
2624,-7.4960000,10240.00
2625,-7.5000000,10240.00
2626,-7.5040000,10320.00
2627,-7.5080000,10240.00
2628,-7.5120000,10240.00
2629,-7.5160000,10320.00
2630,-7.5200000,10320.00
2631,-7.5240000,10320.00
2632,-7.5280000,10240.00
2633,-7.5320000,10320.00
2634,-7.5360000,10160.00
2635,-7.5400000,10240.00
2636,-7.5440000,10240.00
2637,-7.5480000,10240.00
2638,-7.5520000,10320.00
2639,-7.5560000,10240.00
2640,-7.5600000,10240.00
2641,-7.5640000,10320.00
2642,-7.5680000,10240.00
2643,-7.5720000,10240.00
2644,-7.5760000,10320.00
2645,-7.5800000,10320.00
2646,-7.5840000,10240.00
2647,-7.5880000,10240.00
2648,-7.5920000,10320.00
2649,-7.5960000,10240.00
2650,-7.6000000,10160.00
2651,-7.6040000,10240.00
2652,-7.6080000,10160.00
2653,-7.6120000,10320.00
2654,-7.6160000,10320.00
2655,-7.6200000,10240.00
2656,-7.6240000,10240.00
2657,-7.6280000,10160.00
2658,-7.6320000,10240.00
2659,-7.6360000,10240.00
2660,-7.6400000,10240.00
2661,-7.6440000,10240.00
2662,-7.6480000,10240.00
2663,-7.6520000,10240.00
2664,-7.6560000,10240.00
2665,-7.6600000,10320.00
2666,-7.6640000,10320.00
2667,-7.6680000,10240.00
2668,-7.6720000,10240.00
2669,-7.6760000,10240.00
2670,-7.6800000,10240.00
2671,-7.6840000,10320.00
2672,-7.6880000,10240.00
2673,-7.6920000,10240.00
2674,-7.6960000,10320.00
2675,-7.7000000,10320.00
2676,-7.7040000,10240.00
2677,-7.7080000,10240.00
2678,-7.7120000,10240.00
2679,-7.7160000,10240.00
2680,-7.7200000,10240.00
2681,-7.7240000,10240.00
2682,-7.7280000,10240.00
2683,-7.7320000,10240.00
2684,-7.7360000,10320.00
2685,-7.7400000,10320.00
2686,-7.7440000,10240.00
2687,-7.7480000,10240.00
2688,-7.7520000,10320.00
2689,-7.7560000,10240.00
2690,-7.7600000,10240.00
2691,-7.7640000,10240.00
2692,-7.7680000,10240.00
2693,-7.7720000,10240.00
2694,-7.7760000,10240.00
2695,-7.7800000,10240.00
2696,-7.7840000,10320.00
2697,-7.7880000,10320.00
2698,-7.7920000,10320.00
2699,-7.7960000,10320.00
2700,-7.8000000,10320.00
2701,-7.8040000,10320.00
2702,-7.8080000,10320.00
2703,-7.8120000,10320.00
2704,-7.8160000,10320.00
2705,-7.8200000,10320.00
2706,-7.8240000,10240.00
2707,-7.8280000,10240.00
2708,-7.8320000,10240.00
2709,-7.8360000,10240.00
2710,-7.8400000,10240.00
2711,-7.8440000,10320.00
2712,-7.8480000,10320.00
2713,-7.8520000,10240.00
2714,-7.8560000,10320.00
2715,-7.8600000,10240.00
2716,-7.8640000,10240.00
2717,-7.8680000,10240.00
2718,-7.8720000,10240.00
2719,-7.8760000,10320.00
2720,-7.8800000,10240.00
2721,-7.8840000,10240.00
2722,-7.8880000,10320.00
2723,-7.8920000,10240.00
2724,-7.8960000,10240.00
2725,-7.9000000,10160.00
2726,-7.9040000,10240.00
2727,-7.9080000,10240.00
2728,-7.9120000,10240.00
2729,-7.9160000,10320.00
2730,-7.9200000,10240.00
2731,-7.9240000,10240.00
2732,-7.9280000,10240.00
2733,-7.9320000,10320.00
2734,-7.9360000,10320.00
2735,-7.9400000,10160.00
2736,-7.9440000,10240.00
2737,-7.9480000,10240.00
2738,-7.9520000,10240.00
2739,-7.9560000,10240.00
2740,-7.9600000,10240.00
2741,-7.9640000,10240.00
2742,-7.9680000,10240.00
2743,-7.9720000,10320.00
2744,-7.9760000,10240.00
2745,-7.9800000,10240.00
2746,-7.9840000,10320.00
2747,-7.9880000,10320.00
2748,-7.9920000,10240.00
2749,-7.9960000,10240.00
2750,-8.0000000,10240.00
2751,-8.0040000,10240.00
2752,-8.0080000,10240.00
2753,-8.0120000,10240.00
2754,-8.0160000,10320.00
2755,-8.0200000,10320.00
2756,-8.0240000,10320.00
2757,-8.0280000,10320.00
2758,-8.0320000,10240.00
2759,-8.0360000,10320.00
2760,-8.0400000,10240.00
2761,-8.0440000,10320.00
2762,-8.0480000,10320.00
2763,-8.0520000,10240.00
2764,-8.0560000,10240.00
2765,-8.0600000,10320.00
2766,-8.0640000,10240.00
2767,-8.0680000,10240.00
2768,-8.0720000,10240.00
2769,-8.0760000,10320.00
2770,-8.0800000,10240.00
2771,-8.0840000,10240.00
2772,-8.0880000,10240.00
2773,-8.0920000,10160.00
2774,-8.0960000,10240.00
2775,-8.1000000,10160.00
2776,-8.1040000,10320.00
2777,-8.1080000,10320.00
2778,-8.1120000,10240.00
2779,-8.1160000,10320.00
2780,-8.1200000,10320.00
2781,-8.1240000,10320.00
2782,-8.1280000,10240.00
2783,-8.1320000,10320.00
2784,-8.1360000,10320.00
2785,-8.1400000,10240.00
2786,-8.1440000,10320.00
2787,-8.1480000,10320.00
2788,-8.1520000,10320.00
2789,-8.1560000,10240.00
2790,-8.1600000,10320.00
2791,-8.1640000,10240.00
2792,-8.1680000,10160.00
2793,-8.1720000,10320.00
2794,-8.1760000,10240.00
2795,-8.1800000,10240.00
2796,-8.1840000,10240.00
2797,-8.1880000,10240.00
2798,-8.1920000,10240.00
2799,-8.1960000,10240.00
2800,-8.2000000,10240.00
2801,-8.2040000,10240.00
2802,-8.2080000,10240.00
2803,-8.2120000,160.00
2804,-8.2160000,160.00
2805,-8.2200000,160.00
2806,-8.2240000,240.00
2807,-8.2280000,240.00
2808,-8.2320000,160.00
2809,-8.2360000,240.00
2810,-8.2400000,160.00
2811,-8.2440000,160.00
2812,-8.2480000,240.00
2813,-8.2520000,240.00
2814,-8.2560000,160.00
2815,-8.2600000,240.00
2816,-8.2640000,240.00
2817,-8.2680000,240.00
2818,-8.2720000,240.00
2819,-8.2760000,240.00
2820,-8.2800000,240.00
2821,-8.2840000,240.00
2822,-8.2880000,240.00
2823,-8.2920000,240.00
2824,-8.2960000,160.00
2825,-8.3000000,160.00
2826,-8.3040000,240.00
2827,-8.3080000,240.00
2828,-8.3120000,240.00
2829,-8.3160000,160.00
2830,-8.3200000,240.00
2831,-8.3240000,240.00
2832,-8.3280000,160.00
2833,-8.3320000,240.00
2834,-8.3360000,240.00
2835,-8.3400000,240.00
2836,-8.3440000,240.00
2837,-8.3480000,240.00
2838,-8.3520000,240.00
2839,-8.3560000,320.00
2840,-8.3600000,240.00
2841,-8.3640000,240.00
2842,-8.3680000,240.00
2843,-8.3720000,240.00
2844,-8.3760000,320.00
2845,-8.3800000,240.00
2846,-8.3840000,240.00
2847,-8.3880000,320.00
2848,-8.3920000,320.00
2849,-8.3960000,320.00
2850,-8.4000000,240.00
2851,-8.4040000,160.00
2852,-8.4080000,160.00
2853,-8.4120000,240.00
2854,-8.4160000,160.00
2855,-8.4200000,160.00
2856,-8.4240000,240.00
2857,-8.4280000,160.00
2858,-8.4320000,160.00
2859,-8.4360000,160.00
2860,-8.4400000,160.00
2861,-8.4440000,160.00
2862,-8.4480000,240.00
2863,-8.4520000,240.00
2864,-8.4560000,240.00
2865,-8.4600000,160.00
2866,-8.4640000,320.00
2867,-8.4680000,240.00
2868,-8.4720000,240.00
2869,-8.4760000,240.00
2870,-8.4800000,320.00
2871,-8.4840000,320.00
2872,-8.4880000,160.00
2873,-8.4920000,240.00
2874,-8.4960000,240.00
2875,-8.5000000,240.00
2876,-8.5040000,240.00
2877,-8.5080000,240.00
2878,-8.5120000,240.00
2879,-8.5160000,240.00
2880,-8.5200000,160.00
2881,-8.5240000,240.00
2882,-8.5280000,240.00
2883,-8.5320000,240.00
2884,-8.5360000,320.00
2885,-8.5400000,4560.00
2886,-8.5440000,8560.00
2887,-8.5480000,9760.00
2888,-8.5520000,10080.00
2889,-8.5560000,10160.00
2890,-8.5600000,10160.00
2891,-8.5640000,10160.00
2892,-8.5680000,10240.00
2893,-8.5720000,10240.00
2894,-8.5760000,10240.00
2895,-8.5800000,10320.00
2896,-8.5840000,10240.00
2897,-8.5880000,10320.00
2898,-8.5920000,10240.00
2899,-8.5960000,160.00
2900,-8.6000000,160.00
2901,-8.6040000,160.00
2902,-8.6080000,160.00
2903,-8.6120000,240.00
2904,-8.6160000,240.00
2905,-8.6200000,160.00
2906,-8.6240000,240.00
2907,-8.6280000,160.00
2908,-8.6320000,240.00
2909,-8.6360000,240.00
2910,-8.6400000,240.00
2911,-8.6440000,240.00
2912,-8.6480000,240.00
2913,-8.6520000,240.00
2914,-8.6560000,240.00
2915,-8.6600000,240.00
2916,-8.6640000,240.00
2917,-8.6680000,240.00
2918,-8.6720000,240.00
2919,-8.6760000,240.00
2920,-8.6800000,240.00
2921,-8.6840000,240.00
2922,-8.6880000,240.00
2923,-8.6920000,240.00
2924,-8.6960000,240.00
2925,-8.7000000,240.00
2926,-8.7040000,320.00
2927,-8.7080000,240.00
2928,-8.7120000,240.00
2929,-8.7160000,240.00
2930,-8.7200000,240.00
2931,-8.7240000,240.00
2932,-8.7280000,240.00
2933,-8.7320000,240.00
2934,-8.7360000,240.00
2935,-8.7400000,160.00
2936,-8.7440000,160.00
2937,-8.7480000,160.00
2938,-8.7520000,240.00
2939,-8.7560000,160.00
2940,-8.7600000,240.00
2941,-8.7640000,240.00
2942,-8.7680000,240.00
2943,-8.7720000,160.00
2944,-8.7760000,160.00
2945,-8.7800000,160.00
2946,-8.7840000,160.00
2947,-8.7880000,160.00
2948,-8.7920000,240.00
2949,-8.7960000,4320.00
2950,-8.8000000,8560.00
2951,-8.8040000,9760.00
2952,-8.8080000,10080.00
2953,-8.8120000,10160.00
2954,-8.8160000,10240.00
2955,-8.8200000,10240.00
2956,-8.8240000,10320.00
2957,-8.8280000,10240.00
2958,-8.8320000,10320.00
2959,-8.8360000,10240.00
2960,-8.8400000,10320.00
2961,-8.8440000,10240.00
2962,-8.8480000,10320.00
2963,-8.8520000,10320.00
2964,-8.8560000,10240.00
2965,-8.8600000,10240.00
2966,-8.8640000,10240.00
2967,-8.8680000,10320.00
2968,-8.8720000,10240.00
2969,-8.8760000,10320.00
2970,-8.8800000,10240.00
2971,-8.8840000,10240.00
2972,-8.8880000,10240.00
2973,-8.8920000,10160.00
2974,-8.8960000,10240.00
2975,-8.9000000,10320.00
2976,-8.9040000,10240.00
2977,-8.9080000,10240.00
2978,-8.9120000,10240.00
2979,-8.9160000,10240.00
2980,-8.9200000,10240.00
2981,-8.9240000,10320.00
2982,-8.9280000,10320.00
2983,-8.9320000,10320.00
2984,-8.9360000,10240.00
2985,-8.9400000,10240.00
2986,-8.9440000,10160.00
2987,-8.9480000,10160.00
2988,-8.9520000,10240.00
2989,-8.9560000,10320.00
2990,-8.9600000,10240.00
2991,-8.9640000,10320.00
2992,-8.9680000,10240.00
2993,-8.9720000,10320.00
2994,-8.9760000,10320.00
2995,-8.9800000,10240.00
2996,-8.9840000,10320.00
2997,-8.9880000,10240.00
2998,-8.9920000,10240.00
2999,-8.9960000,10240.00
3000,-9.0000000,10240.00
3001,-9.0040000,10240.00
3002,-9.0080000,10320.00
3003,-9.0120000,10240.00
3004,-9.0160000,10320.00
3005,-9.0200000,10320.00
3006,-9.0240000,10320.00
3007,-9.0280000,10240.00
3008,-9.0320000,10320.00
3009,-9.0360000,10320.00
3010,-9.0400000,10240.00
3011,-9.0440000,10240.00
3012,-9.0480000,10320.00
3013,-9.0520000,10240.00
3014,-9.0560000,10320.00
3015,-9.0600000,10240.00
3016,-9.0640000,10240.00
3017,-9.0680000,10320.00
3018,-9.0720000,10240.00
3019,-9.0760000,10320.00
3020,-9.0800000,10320.00
3021,-9.0840000,10320.00
3022,-9.0880000,10240.00
3023,-9.0920000,10240.00
3024,-9.0960000,10320.00
3025,-9.1000000,10240.00
3026,-9.1040000,10240.00
3027,-9.1080000,10240.00
3028,-9.1120000,10240.00
3029,-9.1160000,10240.00
3030,-9.1200000,10240.00
3031,-9.1240000,10240.00
3032,-9.1280000,10240.00
3033,-9.1320000,10240.00
3034,-9.1360000,10240.00
3035,-9.1400000,10240.00
3036,-9.1440000,10240.00
3037,-9.1480000,10240.00
3038,-9.1520000,10320.00
3039,-9.1560000,10320.00
3040,-9.1600000,10240.00
3041,-9.1640000,10320.00
3042,-9.1680000,10240.00
3043,-9.1720000,10240.00
3044,-9.1760000,10320.00
3045,-9.1800000,10320.00
3046,-9.1840000,10320.00
3047,-9.1880000,10320.00
3048,-9.1920000,10320.00
3049,-9.1960000,10400.00
3050,-9.2000000,10320.00
3051,-9.2040000,10320.00
3052,-9.2080000,10240.00
3053,-9.2120000,10320.00
3054,-9.2160000,10240.00
3055,-9.2200000,10240.00
3056,-9.2240000,10240.00
3057,-9.2280000,10240.00
3058,-9.2320000,10160.00
3059,-9.2360000,10240.00
3060,-9.2400000,10320.00
3061,-9.2440000,10320.00
3062,-9.2480000,10320.00
3063,-9.2520000,10400.00
3064,-9.2560000,10320.00
3065,-9.2600000,10240.00
3066,-9.2640000,10320.00
3067,-9.2680000,10320.00
3068,-9.2720000,10320.00
3069,-9.2760000,10320.00
3070,-9.2800000,10320.00
3071,-9.2840000,10240.00
3072,-9.2880000,10320.00
3073,-9.2920000,10320.00
3074,-9.2960000,10320.00
3075,-9.3000000,10320.00
3076,-9.3040000,10320.00
3077,-9.3080000,10320.00
3078,-9.3120000,10400.00
3079,-9.3160000,10320.00
3080,-9.3200000,10320.00
3081,-9.3240000,10240.00
3082,-9.3280000,10320.00
3083,-9.3320000,10320.00
3084,-9.3360000,10240.00
3085,-9.3400000,10320.00
3086,-9.3440000,10240.00
3087,-9.3480000,10240.00
3088,-9.3520000,10320.00
3089,-9.3560000,10320.00
3090,-9.3600000,10240.00
3091,-9.3640000,10320.00
3092,-9.3680000,10320.00
3093,-9.3720000,10320.00
3094,-9.3760000,10320.00
3095,-9.3800000,10320.00
3096,-9.3840000,10320.00
3097,-9.3880000,10320.00
3098,-9.3920000,10320.00
3099,-9.3960000,10320.00
3100,-9.4000000,10320.00
3101,-9.4040000,10320.00
3102,-9.4080000,10320.00
3103,-9.4120000,10320.00
3104,-9.4160000,10320.00
3105,-9.4200000,10320.00
3106,-9.4240000,10240.00
3107,-9.4280000,10320.00
3108,-9.4320000,10320.00
3109,-9.4360000,10320.00
3110,-9.4400000,10240.00
3111,-9.4440000,10320.00
3112,-9.4480000,10240.00
3113,-9.4520000,10240.00
3114,-9.4560000,10240.00
3115,-9.4600000,10320.00
3116,-9.4640000,10240.00
3117,-9.4680000,10320.00
3118,-9.4720000,10240.00
3119,-9.4760000,10240.00
3120,-9.4800000,10240.00
3121,-9.4840000,10320.00
3122,-9.4880000,10240.00
3123,-9.4920000,10320.00
3124,-9.4960000,10240.00
3125,-9.5000000,10320.00
3126,-9.5040000,10320.00
3127,-9.5080000,10320.00
3128,-9.5120000,10240.00
3129,-9.5160000,10320.00
3130,-9.5200000,10320.00
3131,-9.5240000,10320.00
3132,-9.5280000,10320.00
3133,-9.5320000,10240.00
3134,-9.5360000,10320.00
3135,-9.5400000,10320.00
3136,-9.5440000,10240.00
3137,-9.5480000,10240.00
3138,-9.5520000,10240.00
3139,-9.5560000,10320.00
3140,-9.5600000,10160.00
3141,-9.5640000,10320.00
3142,-9.5680000,10320.00
3143,-9.5720000,10320.00
3144,-9.5760000,10320.00
3145,-9.5800000,10320.00
3146,-9.5840000,10240.00
3147,-9.5880000,10240.00
3148,-9.5920000,10320.00
3149,-9.5960000,10240.00
3150,-9.6000000,10320.00
3151,-9.6040000,10320.00
3152,-9.6080000,10240.00
3153,-9.6120000,10240.00
3154,-9.6160000,10320.00
3155,-9.6200000,10320.00
3156,-9.6240000,10240.00
3157,-9.6280000,10320.00
3158,-9.6320000,10320.00
3159,-9.6360000,10320.00
3160,-9.6400000,10240.00
3161,-9.6440000,10320.00
3162,-9.6480000,10240.00
3163,-9.6520000,10320.00
3164,-9.6560000,10160.00
3165,-9.6600000,10400.00
3166,-9.6640000,10320.00
3167,-9.6680000,10320.00
3168,-9.6720000,10320.00
3169,-9.6760000,10320.00
3170,-9.6800000,10240.00
3171,-9.6840000,10240.00
3172,-9.6880000,10240.00
3173,-9.6920000,10240.00
3174,-9.6960000,10240.00
3175,-9.7000000,10160.00
3176,-9.7040000,10240.00
3177,-9.7080000,10320.00
3178,-9.7120000,10160.00
3179,-9.7160000,10320.00
3180,-9.7200000,10320.00
3181,-9.7240000,10240.00
3182,-9.7280000,10320.00
3183,-9.7320000,10240.00
3184,-9.7360000,10320.00
3185,-9.7400000,10320.00
3186,-9.7440000,10320.00
3187,-9.7480000,10320.00
3188,-9.7520000,10320.00
3189,-9.7560000,10320.00
3190,-9.7600000,10320.00
3191,-9.7640000,10320.00
3192,-9.7680000,10240.00
3193,-9.7720000,10240.00
3194,-9.7760000,10320.00
3195,-9.7800000,10320.00
3196,-9.7840000,10320.00
3197,-9.7880000,10320.00
3198,-9.7920000,10320.00
3199,-9.7960000,10240.00
3200,-9.8000000,10320.00
3201,-9.8040000,10320.00
3202,-9.8080000,10320.00
3203,-9.8120000,10240.00
3204,-9.8160000,10240.00
3205,-9.8200000,10240.00
3206,-9.8240000,10240.00
3207,-9.8280000,10160.00
3208,-9.8320000,10320.00
3209,-9.8360000,10240.00
3210,-9.8400000,10240.00
3211,-9.8440000,10320.00
3212,-9.8480000,10240.00
3213,-9.8520000,10240.00
3214,-9.8560000,10400.00
3215,-9.8600000,10320.00
3216,-9.8640000,10240.00
3217,-9.8680000,10320.00
3218,-9.8720000,10320.00
3219,-9.8760000,10320.00
3220,-9.8800000,10320.00
3221,-9.8840000,10320.00
3222,-9.8880000,10320.00
3223,-9.8920000,10320.00
3224,-9.8960000,10320.00
3225,-9.9000000,10320.00
3226,-9.9040000,10320.00
3227,-9.9080000,10320.00
3228,-9.9120000,10240.00
3229,-9.9160000,10240.00
3230,-9.9200000,10320.00
3231,-9.9240000,10240.00
3232,-9.9280000,10240.00
3233,-9.9320000,10240.00
3234,-9.9360000,10240.00
3235,-9.9400000,10240.00
3236,-9.9440000,10320.00
3237,-9.9480000,10240.00
3238,-9.9520000,10320.00
3239,-9.9560000,10320.00
3240,-9.9600000,10240.00
3241,-9.9640000,10320.00
3242,-9.9680000,10320.00
3243,-9.9720000,10240.00
3244,-9.9760000,10320.00
3245,-9.9800000,10320.00
3246,-9.9840000,10320.00
3247,-9.9880000,10320.00
3248,-9.9920000,10320.00
3249,-9.9960000,10320.00
3250,-10.0000000,10320.00
3251,-10.0040000,10320.00
3252,-10.0080000,10320.00
3253,-10.0120000,10320.00
3254,-10.0160000,10320.00
3255,-10.0200000,10320.00
3256,-10.0240000,10240.00
3257,-10.0280000,10320.00
3258,-10.0320000,10240.00
3259,-10.0360000,10240.00
3260,-10.0400000,10320.00
3261,-10.0440000,10320.00
3262,-10.0480000,10240.00
3263,-10.0520000,10320.00
3264,-10.0560000,10240.00
3265,-10.0600000,10240.00
3266,-10.0640000,10240.00
3267,-10.0680000,10240.00
3268,-10.0720000,10240.00
3269,-10.0760000,10240.00
3270,-10.0800000,10320.00
3271,-10.0840000,10400.00
3272,-10.0880000,10240.00
3273,-10.0920000,10320.00
3274,-10.0960000,10320.00
3275,-10.1000000,10240.00
3276,-10.1040000,10240.00
3277,-10.1080000,10320.00
3278,-10.1120000,10240.00
3279,-10.1160000,10320.00
3280,-10.1200000,10320.00
3281,-10.1240000,10320.00
3282,-10.1280000,10320.00
3283,-10.1320000,10320.00
3284,-10.1360000,10320.00
3285,-10.1400000,10320.00
3286,-10.1440000,10320.00
3287,-10.1480000,10320.00
3288,-10.1520000,10400.00
3289,-10.1560000,10320.00
3290,-10.1600000,10240.00
3291,-10.1640000,10320.00
3292,-10.1680000,10320.00
3293,-10.1720000,10320.00
3294,-10.1760000,10320.00
3295,-10.1800000,10320.00
3296,-10.1840000,10320.00
3297,-10.1880000,10320.00
3298,-10.1920000,10240.00
3299,-10.1960000,10320.00
3300,-10.2000000,10240.00
3301,-10.2040000,10320.00
3302,-10.2080000,10320.00
3303,-10.2120000,10320.00
3304,-10.2160000,10320.00
3305,-10.2200000,10320.00
3306,-10.2240000,10240.00
3307,-10.2280000,10320.00
3308,-10.2320000,10320.00
3309,-10.2360000,10320.00
3310,-10.2400000,10240.00
3311,-10.2440000,10320.00
3312,-10.2480000,10320.00
3313,-10.2520000,10320.00
3314,-10.2560000,10320.00
3315,-10.2600000,10320.00
3316,-10.2640000,10320.00
3317,-10.2680000,10320.00
3318,-10.2720000,10320.00
3319,-10.2760000,10320.00
3320,-10.2800000,10240.00
3321,-10.2840000,10320.00
3322,-10.2880000,10320.00
3323,-10.2920000,10320.00
3324,-10.2960000,10320.00
3325,-10.3000000,10320.00
3326,-10.3040000,10160.00
3327,-10.3080000,10320.00
3328,-10.3120000,10320.00
3329,-10.3160000,10240.00
3330,-10.3200000,10320.00
3331,-10.3240000,10240.00
3332,-10.3280000,10320.00
3333,-10.3320000,10320.00
3334,-10.3360000,10320.00
3335,-10.3400000,10320.00
3336,-10.3440000,10400.00
3337,-10.3480000,10400.00
3338,-10.3520000,10320.00
3339,-10.3560000,10320.00
3340,-10.3600000,10320.00
3341,-10.3640000,10240.00
3342,-10.3680000,10320.00
3343,-10.3720000,10320.00
3344,-10.3760000,10320.00
3345,-10.3800000,10320.00
3346,-10.3840000,10320.00
3347,-10.3880000,10320.00
3348,-10.3920000,10240.00
3349,-10.3960000,10240.00
3350,-10.4000000,10320.00
3351,-10.4040000,10240.00
3352,-10.4080000,10320.00
3353,-10.4120000,10240.00
3354,-10.4160000,10320.00
3355,-10.4200000,10240.00
3356,-10.4240000,10320.00
3357,-10.4280000,10240.00
3358,-10.4320000,10240.00
3359,-10.4360000,10240.00
3360,-10.4400000,10320.00
3361,-10.4440000,10320.00
3362,-10.4480000,10240.00
3363,-10.4520000,10240.00
3364,-10.4560000,10320.00
3365,-10.4600000,10320.00
3366,-10.4640000,10400.00
3367,-10.4680000,10320.00
3368,-10.4720000,10240.00
3369,-10.4760000,10240.00
3370,-10.4800000,10320.00
3371,-10.4840000,10240.00
3372,-10.4880000,10320.00
3373,-10.4920000,10320.00
3374,-10.4960000,10320.00
3375,-10.5000000,10320.00
3376,-10.5040000,10320.00
3377,-10.5080000,10320.00
3378,-10.5120000,10240.00
3379,-10.5160000,10240.00
3380,-10.5200000,10320.00
3381,-10.5240000,10240.00
3382,-10.5280000,10320.00
3383,-10.5320000,10320.00
3384,-10.5360000,10320.00
3385,-10.5400000,10320.00
3386,-10.5440000,10320.00
3387,-10.5480000,10240.00
3388,-10.5520000,10240.00
3389,-10.5560000,10320.00
3390,-10.5600000,10320.00
3391,-10.5640000,10320.00
3392,-10.5680000,10320.00
3393,-10.5720000,10240.00
3394,-10.5760000,10320.00
3395,-10.5800000,10320.00
3396,-10.5840000,10320.00
3397,-10.5880000,10320.00
3398,-10.5920000,10320.00
3399,-10.5960000,10320.00
3400,-10.6000000,10320.00
3401,-10.6040000,10320.00
3402,-10.6080000,10320.00
3403,-10.6120000,10320.00
3404,-10.6160000,10320.00
3405,-10.6200000,10320.00
3406,-10.6240000,10400.00
3407,-10.6280000,10320.00
3408,-10.6320000,10320.00
3409,-10.6360000,10320.00
3410,-10.6400000,10400.00
3411,-10.6440000,10320.00
3412,-10.6480000,10240.00
3413,-10.6520000,10320.00
3414,-10.6560000,10240.00
3415,-10.6600000,10320.00
3416,-10.6640000,10320.00
3417,-10.6680000,10320.00
3418,-10.6720000,10240.00
3419,-10.6760000,10320.00
3420,-10.6800000,10320.00
3421,-10.6840000,10320.00
3422,-10.6880000,10320.00
3423,-10.6920000,10320.00
3424,-10.6960000,10320.00
3425,-10.7000000,10320.00
3426,-10.7040000,10320.00
3427,-10.7080000,10320.00
3428,-10.7120000,10320.00
3429,-10.7160000,10320.00
3430,-10.7200000,10320.00
3431,-10.7240000,10400.00
3432,-10.7280000,10320.00
3433,-10.7320000,10320.00
3434,-10.7360000,10320.00
3435,-10.7400000,10320.00
3436,-10.7440000,10320.00
3437,-10.7480000,10240.00
3438,-10.7520000,10320.00
3439,-10.7560000,10320.00
3440,-10.7600000,10240.00
3441,-10.7640000,10240.00
3442,-10.7680000,10320.00
3443,-10.7720000,10240.00
3444,-10.7760000,10240.00
3445,-10.7800000,10240.00
3446,-10.7840000,10320.00
3447,-10.7880000,10320.00
3448,-10.7920000,10320.00
3449,-10.7960000,10320.00
3450,-10.8000000,10320.00
3451,-10.8040000,10320.00
3452,-10.8080000,10240.00
3453,-10.8120000,10240.00
3454,-10.8160000,10240.00
3455,-10.8200000,10320.00
3456,-10.8240000,10320.00
3457,-10.8280000,10320.00
3458,-10.8320000,10320.00
3459,-10.8360000,10320.00
3460,-10.8400000,10320.00
3461,-10.8440000,10320.00
3462,-10.8480000,10320.00
3463,-10.8520000,10320.00
3464,-10.8560000,10320.00
3465,-10.8600000,10320.00
3466,-10.8640000,10240.00
3467,-10.8680000,10240.00
3468,-10.8720000,10160.00
3469,-10.8760000,10320.00
3470,-10.8800000,10320.00
3471,-10.8840000,10240.00
3472,-10.8880000,10320.00
3473,-10.8920000,10320.00
3474,-10.8960000,10320.00
3475,-10.9000000,10320.00
3476,-10.9040000,10240.00
3477,-10.9080000,10240.00
3478,-10.9120000,10320.00
3479,-10.9160000,10320.00
3480,-10.9200000,10320.00
3481,-10.9240000,10320.00
3482,-10.9280000,10320.00
3483,-10.9320000,10240.00
3484,-10.9360000,10320.00
3485,-10.9400000,10240.00
3486,-10.9440000,10240.00
3487,-10.9480000,10400.00
3488,-10.9520000,10320.00
3489,-10.9560000,10400.00
3490,-10.9600000,10320.00
3491,-10.9640000,10320.00
3492,-10.9680000,10320.00
3493,-10.9720000,10320.00
3494,-10.9760000,10320.00
3495,-10.9800000,10320.00
3496,-10.9840000,10320.00
3497,-10.9880000,10320.00
3498,-10.9920000,10320.00
3499,-10.9960000,10320.00
3500,-11.0000000,10240.00
3501,-11.0040000,10320.00
3502,-11.0080000,10320.00
3503,-11.0120000,10320.00
3504,-11.0160000,10240.00
3505,-11.0200000,10240.00
3506,-11.0240000,10240.00
3507,-11.0280000,10320.00
3508,-11.0320000,10320.00
3509,-11.0360000,10320.00
3510,-11.0400000,10320.00
3511,-11.0440000,10320.00
3512,-11.0480000,10320.00
3513,-11.0520000,10320.00
3514,-11.0560000,10320.00
3515,-11.0600000,10320.00
3516,-11.0640000,10320.00
3517,-11.0680000,10320.00
3518,-11.0720000,10320.00
3519,-11.0760000,10320.00
3520,-11.0800000,10240.00
3521,-11.0840000,10240.00
3522,-11.0880000,10320.00
3523,-11.0920000,10240.00
3524,-11.0960000,10320.00
3525,-11.1000000,10240.00
3526,-11.1040000,10240.00
3527,-11.1080000,10240.00
3528,-11.1120000,10160.00
3529,-11.1160000,10320.00
3530,-11.1200000,10320.00
3531,-11.1240000,10320.00
3532,-11.1280000,10240.00
3533,-11.1320000,10240.00
3534,-11.1360000,10320.00
3535,-11.1400000,10240.00
3536,-11.1440000,10320.00
3537,-11.1480000,10320.00
3538,-11.1520000,10240.00
3539,-11.1560000,10320.00
3540,-11.1600000,10320.00
3541,-11.1640000,10320.00
3542,-11.1680000,10240.00
3543,-11.1720000,10320.00
3544,-11.1760000,10320.00
3545,-11.1800000,10320.00
3546,-11.1840000,10320.00
3547,-11.1880000,10320.00
3548,-11.1920000,10320.00
3549,-11.1960000,10240.00
3550,-11.2000000,10320.00
3551,-11.2040000,10320.00
3552,-11.2080000,10320.00
3553,-11.2120000,10320.00
3554,-11.2160000,10240.00
3555,-11.2200000,10320.00
3556,-11.2240000,10320.00
3557,-11.2280000,10320.00
3558,-11.2320000,10240.00
3559,-11.2360000,10320.00
3560,-11.2400000,10240.00
3561,-11.2440000,10240.00
3562,-11.2480000,10240.00
3563,-11.2520000,10240.00
3564,-11.2560000,10320.00
3565,-11.2600000,10320.00
3566,-11.2640000,10320.00
3567,-11.2680000,10240.00
3568,-11.2720000,10320.00
3569,-11.2760000,10320.00
3570,-11.2800000,10320.00
3571,-11.2840000,10320.00
3572,-11.2880000,10320.00
3573,-11.2920000,10320.00
3574,-11.2960000,10320.00
3575,-11.3000000,10240.00
3576,-11.3040000,10320.00
3577,-11.3080000,10320.00
3578,-11.3120000,10320.00
3579,-11.3160000,10320.00
3580,-11.3200000,10320.00
3581,-11.3240000,10320.00
3582,-11.3280000,10320.00
3583,-11.3320000,10320.00
3584,-11.3360000,10240.00
3585,-11.3400000,10240.00
3586,-11.3440000,10320.00
3587,-11.3480000,10240.00
3588,-11.3520000,10240.00
3589,-11.3560000,10160.00
3590,-11.3600000,10320.00
3591,-11.3640000,10320.00
3592,-11.3680000,10320.00
3593,-11.3720000,10240.00
3594,-11.3760000,10240.00
3595,-11.3800000,10320.00
3596,-11.3840000,10320.00
3597,-11.3880000,10240.00
3598,-11.3920000,10320.00
3599,-11.3960000,10320.00
3600,-11.4000000,10240.00
3601,-11.4040000,10240.00
3602,-11.4080000,10320.00
3603,-11.4120000,10240.00
3604,-11.4160000,10240.00
3605,-11.4200000,10320.00
3606,-11.4240000,10320.00
3607,-11.4280000,10320.00
3608,-11.4320000,10320.00
3609,-11.4360000,10320.00
3610,-11.4400000,10320.00
3611,-11.4440000,10320.00
3612,-11.4480000,10400.00
3613,-11.4520000,10320.00
3614,-11.4560000,10320.00
3615,-11.4600000,10320.00
3616,-11.4640000,10240.00
3617,-11.4680000,10240.00
3618,-11.4720000,10240.00
3619,-11.4760000,10240.00
3620,-11.4800000,10240.00
3621,-11.4840000,10320.00
3622,-11.4880000,10320.00
3623,-11.4920000,10320.00
3624,-11.4960000,10240.00
3625,-11.5000000,10240.00
3626,-11.5040000,10240.00
3627,-11.5080000,10320.00
3628,-11.5120000,10320.00
3629,-11.5160000,10240.00
3630,-11.5200000,10240.00
3631,-11.5240000,10320.00
3632,-11.5280000,10320.00
3633,-11.5320000,10240.00
3634,-11.5360000,10240.00
3635,-11.5400000,10240.00
3636,-11.5440000,10320.00
3637,-11.5480000,10240.00
3638,-11.5520000,10320.00
3639,-11.5560000,10320.00
3640,-11.5600000,10320.00
3641,-11.5640000,10240.00
3642,-11.5680000,10400.00
3643,-11.5720000,10320.00
3644,-11.5760000,10320.00
3645,-11.5800000,10240.00
3646,-11.5840000,10240.00
3647,-11.5880000,10320.00
3648,-11.5920000,10320.00
3649,-11.5960000,10240.00
3650,-11.6000000,10320.00
3651,-11.6040000,10320.00
3652,-11.6080000,10320.00
3653,-11.6120000,10240.00
3654,-11.6160000,10240.00
3655,-11.6200000,10320.00
3656,-11.6240000,10320.00
3657,-11.6280000,10320.00
3658,-11.6320000,10320.00
3659,-11.6360000,10320.00
3660,-11.6400000,10320.00
3661,-11.6440000,10320.00
3662,-11.6480000,10320.00
3663,-11.6520000,10320.00
3664,-11.6560000,10320.00
3665,-11.6600000,10320.00
3666,-11.6640000,10320.00
3667,-11.6680000,10320.00
3668,-11.6720000,10240.00
3669,-11.6760000,10320.00
3670,-11.6800000,10240.00
3671,-11.6840000,10320.00
3672,-11.6880000,10320.00
3673,-11.6920000,10240.00
3674,-11.6960000,10240.00
3675,-11.7000000,10240.00
3676,-11.7040000,10240.00
3677,-11.7080000,10240.00
3678,-11.7120000,10240.00
3679,-11.7160000,10160.00
3680,-11.7200000,10320.00
3681,-11.7240000,10320.00
3682,-11.7280000,10320.00
3683,-11.7320000,10240.00
3684,-11.7360000,10320.00
3685,-11.7400000,10320.00
3686,-11.7440000,10320.00
3687,-11.7480000,10320.00
3688,-11.7520000,10320.00
3689,-11.7560000,10240.00
3690,-11.7600000,10240.00
3691,-11.7640000,10320.00
3692,-11.7680000,10320.00
3693,-11.7720000,10320.00
3694,-11.7760000,10320.00
3695,-11.7800000,10320.00
3696,-11.7840000,10320.00
3697,-11.7880000,10320.00
3698,-11.7920000,10240.00
3699,-11.7960000,10320.00
3700,-11.8000000,10240.00
3701,-11.8040000,10240.00
3702,-11.8080000,10320.00
3703,-11.8120000,10240.00
3704,-11.8160000,10240.00
3705,-11.8200000,10320.00
3706,-11.8240000,10320.00
3707,-11.8280000,10320.00
3708,-11.8320000,10240.00
3709,-11.8360000,10320.00
3710,-11.8400000,10240.00
3711,-11.8440000,10320.00
3712,-11.8480000,10320.00
3713,-11.8520000,10240.00
3714,-11.8560000,10320.00
3715,-11.8600000,10240.00
3716,-11.8640000,10320.00
3717,-11.8680000,10320.00
3718,-11.8720000,10240.00
3719,-11.8760000,10240.00
3720,-11.8800000,10320.00
3721,-11.8840000,10320.00
3722,-11.8880000,10320.00
3723,-11.8920000,10320.00
3724,-11.8960000,10320.00
3725,-11.9000000,10320.00
3726,-11.9040000,10320.00
3727,-11.9080000,10320.00
3728,-11.9120000,10240.00
3729,-11.9160000,10320.00
3730,-11.9200000,10320.00
3731,-11.9240000,10240.00
3732,-11.9280000,10320.00
3733,-11.9320000,10320.00
3734,-11.9360000,10240.00
3735,-11.9400000,10240.00
3736,-11.9440000,10320.00
3737,-11.9480000,10320.00
3738,-11.9520000,10320.00
3739,-11.9560000,10240.00
3740,-11.9600000,10240.00
3741,-11.9640000,10240.00
3742,-11.9680000,10320.00
3743,-11.9720000,10240.00
3744,-11.9760000,10240.00
3745,-11.9800000,10240.00
3746,-11.9840000,10320.00
3747,-11.9880000,10240.00
3748,-11.9920000,10320.00
3749,-11.9960000,10240.00
3750,-12.0000000,10320.00
3751,-12.0040000,10400.00
3752,-12.0080000,10320.00
3753,-12.0120000,10400.00
3754,-12.0160000,10320.00
3755,-12.0200000,10320.00
3756,-12.0240000,10320.00
3757,-12.0280000,10320.00
3758,-12.0320000,10320.00
3759,-12.0360000,10320.00
3760,-12.0400000,10320.00
3761,-12.0440000,10320.00
3762,-12.0480000,10320.00
3763,-12.0520000,10320.00
3764,-12.0560000,10160.00
3765,-12.0600000,10240.00
3766,-12.0640000,10320.00
3767,-12.0680000,10320.00
3768,-12.0720000,10240.00
3769,-12.0760000,10320.00
3770,-12.0800000,10320.00
3771,-12.0840000,10240.00
3772,-12.0880000,10320.00
3773,-12.0920000,10320.00
3774,-12.0960000,10320.00
3775,-12.1000000,10320.00
3776,-12.1040000,10320.00
3777,-12.1080000,10320.00
3778,-12.1120000,10320.00
3779,-12.1160000,10320.00
3780,-12.1200000,10320.00
3781,-12.1240000,10320.00
3782,-12.1280000,10320.00
3783,-12.1320000,10320.00
3784,-12.1360000,10320.00
3785,-12.1400000,10320.00
3786,-12.1440000,10320.00
3787,-12.1480000,10320.00
3788,-12.1520000,10320.00
3789,-12.1560000,10320.00
3790,-12.1600000,10240.00
3791,-12.1640000,10320.00
3792,-12.1680000,10320.00
3793,-12.1720000,10240.00
3794,-12.1760000,10320.00
3795,-12.1800000,10320.00
3796,-12.1840000,10240.00
3797,-12.1880000,10320.00
3798,-12.1920000,10320.00
3799,-12.1960000,10240.00
3800,-12.2000000,10320.00
3801,-12.2040000,10240.00
3802,-12.2080000,10240.00
3803,-12.2120000,10240.00
3804,-12.2160000,10240.00
3805,-12.2200000,10320.00
3806,-12.2240000,10240.00
3807,-12.2280000,10240.00
3808,-12.2320000,10240.00
3809,-12.2360000,10320.00
3810,-12.2400000,10320.00
3811,-12.2440000,10320.00
3812,-12.2480000,10320.00
3813,-12.2520000,10320.00
3814,-12.2560000,10320.00
3815,-12.2600000,10320.00
3816,-12.2640000,10320.00
3817,-12.2680000,10240.00
3818,-12.2720000,10240.00
3819,-12.2760000,10240.00
3820,-12.2800000,10240.00
3821,-12.2840000,10320.00
3822,-12.2880000,10240.00
3823,-12.2920000,10320.00
3824,-12.2960000,10160.00
3825,-12.3000000,10320.00
3826,-12.3040000,10320.00
3827,-12.3080000,10240.00
3828,-12.3120000,10160.00
3829,-12.3160000,10240.00
3830,-12.3200000,10320.00
3831,-12.3240000,10320.00
3832,-12.3280000,10320.00
3833,-12.3320000,10240.00
3834,-12.3360000,10320.00
3835,-12.3400000,10320.00
3836,-12.3440000,10320.00
3837,-12.3480000,10320.00
3838,-12.3520000,10240.00
3839,-12.3560000,10240.00
3840,-12.3600000,10320.00
3841,-12.3640000,10320.00
3842,-12.3680000,10320.00
3843,-12.3720000,10320.00
3844,-12.3760000,10320.00
3845,-12.3800000,10320.00
3846,-12.3840000,10320.00
3847,-12.3880000,10320.00
3848,-12.3920000,10240.00
3849,-12.3960000,10320.00
3850,-12.4000000,10320.00
3851,-12.4040000,10240.00
3852,-12.4080000,10240.00
3853,-12.4120000,10320.00
3854,-12.4160000,10240.00
3855,-12.4200000,10240.00
3856,-12.4240000,10240.00
3857,-12.4280000,10240.00
3858,-12.4320000,10320.00
3859,-12.4360000,10320.00
3860,-12.4400000,10240.00
3861,-12.4440000,10240.00
3862,-12.4480000,10320.00
3863,-12.4520000,10320.00
3864,-12.4560000,10240.00
3865,-12.4600000,10320.00
3866,-12.4640000,10240.00
3867,-12.4680000,10320.00
3868,-12.4720000,10320.00
3869,-12.4760000,10240.00
3870,-12.4800000,10320.00
3871,-12.4840000,10320.00
3872,-12.4880000,10320.00
3873,-12.4920000,10320.00
3874,-12.4960000,10400.00
3875,-12.5000000,10320.00
3876,-12.5040000,10320.00
3877,-12.5080000,10320.00
3878,-12.5120000,10320.00
3879,-12.5160000,10320.00
3880,-12.5200000,10320.00
3881,-12.5240000,10240.00
3882,-12.5280000,10320.00
3883,-12.5320000,10320.00
3884,-12.5360000,10320.00
3885,-12.5400000,10240.00
3886,-12.5440000,10320.00
3887,-12.5480000,10240.00
3888,-12.5520000,10240.00
3889,-12.5560000,10240.00
3890,-12.5600000,10240.00
3891,-12.5640000,10320.00
3892,-12.5680000,10240.00
3893,-12.5720000,10240.00
3894,-12.5760000,10320.00
3895,-12.5800000,10320.00
3896,-12.5840000,10240.00
3897,-12.5880000,10240.00
3898,-12.5920000,10240.00
3899,-12.5960000,10320.00
3900,-12.6000000,10240.00
3901,-12.6040000,10320.00
3902,-12.6080000,10320.00
3903,-12.6120000,10320.00
3904,-12.6160000,10240.00
3905,-12.6200000,10240.00
3906,-12.6240000,10320.00
3907,-12.6280000,10240.00
3908,-12.6320000,10320.00
3909,-12.6360000,10240.00
3910,-12.6400000,10240.00
3911,-12.6440000,10320.00
3912,-12.6480000,10240.00
3913,-12.6520000,10320.00
3914,-12.6560000,10240.00
3915,-12.6600000,10240.00
3916,-12.6640000,10320.00
3917,-12.6680000,10160.00
3918,-12.6720000,10240.00
3919,-12.6760000,10320.00
3920,-12.6800000,10240.00
3921,-12.6840000,10320.00
3922,-12.6880000,10240.00
3923,-12.6920000,10320.00
3924,-12.6960000,10320.00
3925,-12.7000000,10320.00
3926,-12.7040000,10320.00
3927,-12.7080000,10320.00
3928,-12.7120000,10320.00
3929,-12.7160000,10320.00
3930,-12.7200000,10320.00
3931,-12.7240000,10320.00
3932,-12.7280000,10320.00
3933,-12.7320000,10320.00
3934,-12.7360000,10240.00
3935,-12.7400000,10400.00
3936,-12.7440000,10320.00
3937,-12.7480000,10320.00
3938,-12.7520000,10320.00
3939,-12.7560000,10320.00
3940,-12.7600000,10320.00
3941,-12.7640000,10240.00
3942,-12.7680000,10240.00
3943,-12.7720000,10240.00
3944,-12.7760000,10240.00
3945,-12.7800000,10240.00
3946,-12.7840000,10240.00
3947,-12.7880000,10320.00
3948,-12.7920000,10400.00
3949,-12.7960000,10320.00
3950,-12.8000000,10320.00
3951,-12.8040000,10240.00
3952,-12.8080000,10320.00
3953,-12.8120000,10320.00
3954,-12.8160000,10320.00
3955,-12.8200000,10320.00
3956,-12.8240000,10320.00
3957,-12.8280000,10240.00
3958,-12.8320000,10320.00
3959,-12.8360000,10320.00
3960,-12.8400000,10320.00
3961,-12.8440000,10240.00
3962,-12.8480000,10320.00
3963,-12.8520000,10320.00
3964,-12.8560000,10320.00
3965,-12.8600000,10240.00
3966,-12.8640000,10240.00
3967,-12.8680000,10320.00
3968,-12.8720000,10320.00
3969,-12.8760000,10240.00
3970,-12.8800000,10240.00
3971,-12.8840000,10320.00
3972,-12.8880000,10240.00
3973,-12.8920000,10240.00
3974,-12.8960000,10160.00
3975,-12.9000000,10160.00
3976,-12.9040000,10240.00
3977,-12.9080000,10240.00
3978,-12.9120000,10320.00
3979,-12.9160000,10240.00
3980,-12.9200000,10320.00
3981,-12.9240000,10320.00
3982,-12.9280000,10240.00
3983,-12.9320000,10240.00
3984,-12.9360000,10320.00
3985,-12.9400000,10320.00
3986,-12.9440000,10320.00
3987,-12.9480000,10240.00
3988,-12.9520000,10320.00
3989,-12.9560000,10320.00
3990,-12.9600000,10320.00
3991,-12.9640000,10320.00
3992,-12.9680000,10320.00
3993,-12.9720000,10320.00
3994,-12.9760000,10320.00
3995,-12.9800000,10400.00
3996,-12.9840000,10320.00
3997,-12.9880000,10320.00
3998,-12.9920000,10320.00
3999,-12.9960000,10320.00
4000,-13.0000000,10240.00
4001,-13.0040000,10160.00
4002,-13.0080000,10240.00
4003,-13.0120000,10240.00
4004,-13.0160000,10240.00
4005,-13.0200000,10320.00
4006,-13.0240000,10320.00
4007,-13.0280000,10320.00
4008,-13.0320000,10320.00
4009,-13.0360000,10320.00
4010,-13.0400000,10240.00
4011,-13.0440000,10320.00
4012,-13.0480000,10320.00
4013,-13.0520000,10240.00
4014,-13.0560000,10320.00
4015,-13.0600000,10240.00
4016,-13.0640000,10320.00
4017,-13.0680000,10400.00
4018,-13.0720000,10320.00
4019,-13.0760000,10320.00
4020,-13.0800000,10320.00
4021,-13.0840000,10320.00
4022,-13.0880000,10320.00
4023,-13.0920000,10320.00
4024,-13.0960000,10320.00
4025,-13.1000000,10320.00
4026,-13.1040000,10320.00
4027,-13.1080000,10240.00
4028,-13.1120000,10320.00
4029,-13.1160000,10240.00
4030,-13.1200000,10320.00
4031,-13.1240000,10320.00
4032,-13.1280000,10320.00
4033,-13.1320000,10320.00
4034,-13.1360000,10320.00
4035,-13.1400000,10240.00
4036,-13.1440000,10320.00
4037,-13.1480000,10240.00
4038,-13.1520000,10320.00
4039,-13.1560000,10320.00
4040,-13.1600000,10240.00
4041,-13.1640000,10320.00
4042,-13.1680000,10320.00
4043,-13.1720000,10320.00
4044,-13.1760000,10320.00
4045,-13.1800000,10320.00
4046,-13.1840000,10320.00
4047,-13.1880000,10320.00
4048,-13.1920000,10320.00
4049,-13.1960000,10320.00
4050,-13.2000000,10320.00
4051,-13.2040000,10320.00
4052,-13.2080000,10320.00
4053,-13.2120000,10320.00
4054,-13.2160000,10320.00
4055,-13.2200000,10320.00
4056,-13.2240000,10320.00
4057,-13.2280000,10240.00
4058,-13.2320000,10320.00
4059,-13.2360000,10320.00
4060,-13.2400000,10240.00
4061,-13.2440000,10240.00
4062,-13.2480000,10320.00
4063,-13.2520000,10320.00
4064,-13.2560000,10320.00
4065,-13.2600000,10320.00
4066,-13.2640000,10320.00
4067,-13.2680000,10320.00
4068,-13.2720000,10240.00
4069,-13.2760000,10320.00
4070,-13.2800000,10320.00
4071,-13.2840000,10320.00
4072,-13.2880000,10320.00
4073,-13.2920000,10320.00
4074,-13.2960000,10240.00
4075,-13.3000000,10240.00
4076,-13.3040000,10320.00
4077,-13.3080000,10320.00
4078,-13.3120000,10320.00
4079,-13.3160000,10320.00
4080,-13.3200000,10320.00
4081,-13.3240000,10320.00
4082,-13.3280000,10240.00
4083,-13.3320000,10320.00
4084,-13.3360000,10320.00
4085,-13.3400000,10320.00
4086,-13.3440000,10320.00
4087,-13.3480000,10320.00
4088,-13.3520000,10320.00
4089,-13.3560000,10320.00
4090,-13.3600000,10240.00
4091,-13.3640000,10320.00
4092,-13.3680000,10320.00
4093,-13.3720000,10240.00
4094,-13.3760000,10240.00
4095,-13.3800000,10320.00
4096,-13.3840000,10320.00
4097,-13.3880000,10320.00
4098,-13.3920000,10400.00
4099,-13.3960000,10240.00
4100,-13.4000000,10240.00
4101,-13.4040000,10240.00
4102,-13.4080000,10320.00
4103,-13.4120000,10160.00
4104,-13.4160000,10240.00
4105,-13.4200000,10320.00
4106,-13.4240000,10320.00
4107,-13.4280000,10240.00
4108,-13.4320000,10320.00
4109,-13.4360000,10320.00
4110,-13.4400000,10320.00
4111,-13.4440000,10320.00
4112,-13.4480000,10320.00
4113,-13.4520000,10320.00
4114,-13.4560000,10320.00
4115,-13.4600000,10320.00
4116,-13.4640000,10320.00
4117,-13.4680000,10320.00
4118,-13.4720000,10320.00
4119,-13.4760000,10240.00
4120,-13.4800000,10240.00
4121,-13.4840000,10320.00
4122,-13.4880000,10320.00
4123,-13.4920000,10240.00
4124,-13.4960000,10320.00
4125,-13.5000000,10240.00
4126,-13.5040000,10320.00
4127,-13.5080000,10240.00
4128,-13.5120000,10320.00
4129,-13.5160000,10240.00
4130,-13.5200000,10240.00
4131,-13.5240000,10320.00
4132,-13.5280000,10240.00
4133,-13.5320000,10320.00
4134,-13.5360000,10320.00
4135,-13.5400000,10320.00
4136,-13.5440000,10320.00
4137,-13.5480000,10320.00
4138,-13.5520000,10240.00
4139,-13.5560000,10320.00
4140,-13.5600000,10320.00
4141,-13.5640000,10320.00
4142,-13.5680000,10320.00
4143,-13.5720000,10320.00
4144,-13.5760000,10320.00
4145,-13.5800000,10320.00
4146,-13.5840000,10320.00
4147,-13.5880000,10320.00
4148,-13.5920000,10320.00
4149,-13.5960000,10240.00
4150,-13.6000000,10240.00
4151,-13.6040000,10240.00
4152,-13.6080000,10320.00
4153,-13.6120000,10240.00
4154,-13.6160000,10240.00
4155,-13.6200000,10320.00
4156,-13.6240000,10320.00
4157,-13.6280000,10320.00
4158,-13.6320000,10240.00
4159,-13.6360000,10320.00
4160,-13.6400000,10320.00
4161,-13.6440000,10320.00
4162,-13.6480000,10240.00
4163,-13.6520000,10320.00
4164,-13.6560000,10320.00
4165,-13.6600000,10320.00
4166,-13.6640000,10320.00
4167,-13.6680000,10320.00
4168,-13.6720000,10320.00
4169,-13.6760000,10320.00
4170,-13.6800000,10320.00
4171,-13.6840000,10320.00
4172,-13.6880000,10320.00
4173,-13.6920000,10320.00
4174,-13.6960000,10320.00
4175,-13.7000000,10240.00
4176,-13.7040000,10240.00
4177,-13.7080000,10320.00
4178,-13.7120000,10240.00
4179,-13.7160000,10240.00
4180,-13.7200000,10320.00
4181,-13.7240000,10240.00
4182,-13.7280000,10320.00
4183,-13.7320000,10320.00
4184,-13.7360000,10240.00
4185,-13.7400000,10240.00
4186,-13.7440000,10240.00
4187,-13.7480000,10240.00
4188,-13.7520000,10320.00
4189,-13.7560000,10320.00
4190,-13.7600000,10320.00
4191,-13.7640000,10240.00
4192,-13.7680000,10320.00
4193,-13.7720000,10320.00
4194,-13.7760000,10240.00
4195,-13.7800000,10240.00
4196,-13.7840000,10320.00
4197,-13.7880000,10320.00
4198,-13.7920000,10320.00
4199,-13.7960000,10320.00
4200,-13.8000000,10320.00
4201,-13.8040000,10320.00
4202,-13.8080000,10320.00
4203,-13.8120000,10240.00
4204,-13.8160000,10320.00
4205,-13.8200000,10320.00
4206,-13.8240000,10240.00
4207,-13.8280000,10320.00
4208,-13.8320000,10320.00
4209,-13.8360000,10240.00
4210,-13.8400000,10240.00
4211,-13.8440000,10320.00
4212,-13.8480000,10240.00
4213,-13.8520000,10320.00
4214,-13.8560000,10320.00
4215,-13.8600000,10320.00
4216,-13.8640000,10320.00
4217,-13.8680000,10320.00
4218,-13.8720000,10320.00
4219,-13.8760000,10320.00
4220,-13.8800000,10320.00
4221,-13.8840000,10240.00
4222,-13.8880000,10400.00
4223,-13.8920000,10320.00
4224,-13.8960000,10320.00
4225,-13.9000000,10320.00
4226,-13.9040000,10320.00
4227,-13.9080000,10320.00
4228,-13.9120000,10320.00
4229,-13.9160000,10240.00
4230,-13.9200000,10240.00
4231,-13.9240000,10320.00
4232,-13.9280000,10320.00
4233,-13.9320000,10320.00
4234,-13.9360000,10320.00
4235,-13.9400000,10240.00
4236,-13.9440000,10320.00
4237,-13.9480000,10320.00
4238,-13.9520000,10320.00
4239,-13.9560000,10320.00
4240,-13.9600000,10240.00
4241,-13.9640000,10320.00
4242,-13.9680000,10240.00
4243,-13.9720000,10320.00
4244,-13.9760000,10240.00
4245,-13.9800000,10240.00
4246,-13.9840000,10240.00
4247,-13.9880000,10320.00
4248,-13.9920000,10320.00
4249,-13.9960000,10240.00
4250,-14.0000000,10240.00
4251,-14.0040000,10320.00
4252,-14.0080000,10320.00
4253,-14.0120000,10320.00
4254,-14.0160000,10320.00
4255,-14.0200000,10320.00
4256,-14.0240000,10320.00
4257,-14.0280000,10240.00
4258,-14.0320000,10240.00
4259,-14.0360000,10240.00
4260,-14.0400000,10320.00
4261,-14.0440000,10320.00
4262,-14.0480000,10320.00
4263,-14.0520000,10320.00
4264,-14.0560000,10320.00
4265,-14.0600000,10320.00
4266,-14.0640000,10320.00
4267,-14.0680000,10320.00
4268,-14.0720000,10160.00
4269,-14.0760000,10320.00
4270,-14.0800000,10240.00
4271,-14.0840000,10240.00
4272,-14.0880000,10320.00
4273,-14.0920000,10320.00
4274,-14.0960000,10320.00
4275,-14.1000000,10320.00
4276,-14.1040000,10240.00
4277,-14.1080000,10320.00
4278,-14.1120000,10320.00
4279,-14.1160000,10240.00
4280,-14.1200000,10240.00
4281,-14.1240000,10320.00
4282,-14.1280000,10240.00
4283,-14.1320000,10320.00
4284,-14.1360000,10320.00
4285,-14.1400000,10320.00
4286,-14.1440000,10320.00
4287,-14.1480000,10320.00
4288,-14.1520000,10320.00
4289,-14.1560000,10320.00
4290,-14.1600000,10320.00
4291,-14.1640000,10320.00
4292,-14.1680000,10240.00
4293,-14.1720000,10320.00
4294,-14.1760000,10320.00
4295,-14.1800000,10320.00
4296,-14.1840000,10320.00
4297,-14.1880000,10240.00
4298,-14.1920000,10240.00
4299,-14.1960000,10240.00
4300,-14.2000000,10240.00
4301,-14.2040000,10320.00
4302,-14.2080000,10320.00
4303,-14.2120000,10160.00
4304,-14.2160000,10240.00
4305,-14.2200000,10400.00
4306,-14.2240000,10320.00
4307,-14.2280000,10240.00
4308,-14.2320000,10320.00
4309,-14.2360000,10320.00
4310,-14.2400000,10320.00
4311,-14.2440000,10400.00
4312,-14.2480000,10320.00
4313,-14.2520000,10320.00
4314,-14.2560000,10320.00
4315,-14.2600000,10320.00
4316,-14.2640000,10320.00
4317,-14.2680000,10320.00
4318,-14.2720000,10320.00
4319,-14.2760000,10320.00
4320,-14.2800000,10320.00
4321,-14.2840000,10240.00
4322,-14.2880000,10320.00
4323,-14.2920000,10320.00
4324,-14.2960000,10320.00
4325,-14.3000000,10320.00
4326,-14.3040000,10320.00
4327,-14.3080000,10320.00
4328,-14.3120000,10320.00
4329,-14.3160000,10320.00
4330,-14.3200000,10320.00
4331,-14.3240000,10240.00
4332,-14.3280000,10240.00
4333,-14.3320000,10240.00
4334,-14.3360000,10320.00
4335,-14.3400000,10320.00
4336,-14.3440000,10320.00
4337,-14.3480000,10320.00
4338,-14.3520000,10240.00
4339,-14.3560000,10240.00
4340,-14.3600000,10320.00
4341,-14.3640000,10240.00
4342,-14.3680000,10320.00
4343,-14.3720000,10400.00
4344,-14.3760000,10320.00
4345,-14.3800000,10320.00
4346,-14.3840000,10320.00
4347,-14.3880000,10320.00
4348,-14.3920000,10320.00
4349,-14.3960000,10320.00
4350,-14.4000000,10320.00
4351,-14.4040000,10320.00
4352,-14.4080000,10320.00
4353,-14.4120000,10320.00
4354,-14.4160000,10320.00
4355,-14.4200000,10320.00
4356,-14.4240000,10240.00
4357,-14.4280000,10320.00
4358,-14.4320000,10320.00
4359,-14.4360000,10320.00
4360,-14.4400000,10160.00
4361,-14.4440000,10240.00
4362,-14.4480000,10320.00
4363,-14.4520000,10240.00
4364,-14.4560000,10320.00
4365,-14.4600000,10320.00
4366,-14.4640000,10320.00
4367,-14.4680000,10320.00
4368,-14.4720000,10320.00
4369,-14.4760000,10320.00
4370,-14.4800000,10320.00
4371,-14.4840000,10320.00
4372,-14.4880000,10240.00
4373,-14.4920000,10320.00
4374,-14.4960000,10320.00
4375,-14.5000000,10320.00
4376,-14.5040000,10240.00
4377,-14.5080000,10320.00
4378,-14.5120000,10320.00
4379,-14.5160000,10400.00
4380,-14.5200000,10320.00
4381,-14.5240000,10320.00
4382,-14.5280000,10320.00
4383,-14.5320000,10240.00
4384,-14.5360000,10320.00
4385,-14.5400000,10240.00
4386,-14.5440000,10320.00
4387,-14.5480000,10320.00
4388,-14.5520000,10320.00
4389,-14.5560000,10240.00
4390,-14.5600000,10240.00
4391,-14.5640000,10240.00
4392,-14.5680000,10240.00
4393,-14.5720000,10240.00
4394,-14.5760000,10320.00
4395,-14.5800000,10320.00
4396,-14.5840000,10320.00
4397,-14.5880000,10400.00
4398,-14.5920000,10320.00
4399,-14.5960000,10320.00
4400,-14.6000000,10320.00
4401,-14.6040000,10320.00
4402,-14.6080000,10160.00
4403,-14.6120000,10320.00
4404,-14.6160000,10320.00
4405,-14.6200000,10320.00
4406,-14.6240000,10320.00
4407,-14.6280000,10320.00
4408,-14.6320000,10320.00
4409,-14.6360000,10320.00
4410,-14.6400000,10320.00
4411,-14.6440000,10320.00
4412,-14.6480000,10320.00
4413,-14.6520000,10240.00
4414,-14.6560000,10240.00
4415,-14.6600000,10240.00
4416,-14.6640000,10240.00
4417,-14.6680000,10240.00
4418,-14.6720000,10240.00
4419,-14.6760000,10320.00
4420,-14.6800000,10320.00
4421,-14.6840000,10240.00
4422,-14.6880000,10240.00
4423,-14.6920000,10320.00
4424,-14.6960000,10320.00
4425,-14.7000000,10240.00
4426,-14.7040000,10320.00
4427,-14.7080000,10320.00
4428,-14.7120000,10320.00
4429,-14.7160000,10320.00
4430,-14.7200000,10320.00
4431,-14.7240000,10320.00
4432,-14.7280000,10320.00
4433,-14.7320000,10320.00
4434,-14.7360000,10320.00
4435,-14.7400000,10240.00
4436,-14.7440000,10320.00
4437,-14.7480000,10320.00
4438,-14.7520000,10320.00
4439,-14.7560000,10240.00
4440,-14.7600000,10320.00
4441,-14.7640000,10320.00
4442,-14.7680000,10320.00
4443,-14.7720000,10240.00
4444,-14.7760000,10320.00
4445,-14.7800000,10240.00
4446,-14.7840000,10240.00
4447,-14.7880000,10240.00
4448,-14.7920000,10320.00
4449,-14.7960000,10320.00
4450,-14.8000000,10320.00
4451,-14.8040000,10320.00
4452,-14.8080000,10240.00
4453,-14.8120000,10240.00
4454,-14.8160000,10240.00
4455,-14.8200000,10320.00
4456,-14.8240000,10320.00
4457,-14.8280000,10240.00
4458,-14.8320000,10320.00
4459,-14.8360000,10320.00
4460,-14.8400000,10240.00
4461,-14.8440000,10320.00
4462,-14.8480000,10320.00
4463,-14.8520000,10320.00
4464,-14.8560000,10320.00
4465,-14.8600000,10320.00
4466,-14.8640000,10400.00
4467,-14.8680000,10240.00
4468,-14.8720000,10240.00
4469,-14.8760000,10320.00
4470,-14.8800000,10320.00
4471,-14.8840000,10320.00
4472,-14.8880000,10240.00
4473,-14.8920000,10320.00
4474,-14.8960000,10320.00
4475,-14.9000000,10240.00
4476,-14.9040000,10320.00
4477,-14.9080000,10320.00
4478,-14.9120000,10240.00
4479,-14.9160000,10320.00
4480,-14.9200000,10320.00
4481,-14.9240000,10240.00
4482,-14.9280000,10240.00
4483,-14.9320000,10320.00
4484,-14.9360000,10320.00
4485,-14.9400000,10320.00
4486,-14.9440000,10320.00
4487,-14.9480000,10320.00
4488,-14.9520000,10240.00
4489,-14.9560000,10320.00
4490,-14.9600000,10320.00
4491,-14.9640000,10320.00
4492,-14.9680000,10320.00
4493,-14.9720000,10320.00
4494,-14.9760000,10320.00
4495,-14.9800000,10320.00
4496,-14.9840000,10320.00
4497,-14.9880000,10320.00
4498,-14.9920000,10320.00
4499,-14.9960000,10320.00
4500,-15.0000000,10320.00
4501,-15.0040000,10240.00
4502,-15.0080000,10320.00
4503,-15.0120000,10320.00
4504,-15.0160000,10320.00
4505,-15.0200000,10240.00
4506,-15.0240000,10240.00
4507,-15.0280000,10240.00
4508,-15.0320000,10320.00
4509,-15.0360000,10240.00
4510,-15.0400000,10240.00
4511,-15.0440000,1040.00
4512,-15.0480000,480.00
4513,-15.0520000,400.00
4514,-15.0560000,400.00
4515,-15.0600000,400.00
4516,-15.0640000,480.00
4517,-15.0680000,400.00
4518,-15.0720000,480.00
4519,-15.0760000,480.00
4520,-15.0800000,480.00
4521,-15.0840000,480.00
4522,-15.0880000,480.00
4523,-15.0920000,480.00
4524,-15.0960000,480.00
4525,-15.1000000,480.00
4526,-15.1040000,480.00
4527,-15.1080000,400.00
4528,-15.1120000,400.00
4529,-15.1160000,480.00
4530,-15.1200000,480.00
4531,-15.1240000,480.00
4532,-15.1280000,400.00
4533,-15.1320000,400.00
4534,-15.1360000,400.00
4535,-15.1400000,480.00
4536,-15.1440000,480.00
4537,-15.1480000,480.00
4538,-15.1520000,400.00
4539,-15.1560000,400.00
4540,-15.1600000,480.00
4541,-15.1640000,400.00
4542,-15.1680000,480.00
4543,-15.1720000,480.00
4544,-15.1760000,3520.00
4545,-15.1800000,8400.00
4546,-15.1840000,9680.00
4547,-15.1880000,10000.00
4548,-15.1920000,10160.00
4549,-15.1960000,10240.00
4550,-15.2000000,10160.00
4551,-15.2040000,10160.00
4552,-15.2080000,10240.00
4553,-15.2120000,10240.00
4554,-15.2160000,10240.00
4555,-15.2200000,10320.00
4556,-15.2240000,10240.00
4557,-15.2280000,10240.00
4558,-15.2320000,10240.00
4559,-15.2360000,10320.00
4560,-15.2400000,10160.00
4561,-15.2440000,10160.00
4562,-15.2480000,10160.00
4563,-15.2520000,10160.00
4564,-15.2560000,10240.00
4565,-15.2600000,10160.00
4566,-15.2640000,10240.00
4567,-15.2680000,10160.00
4568,-15.2720000,10240.00
4569,-15.2760000,10240.00
4570,-15.2800000,10240.00
4571,-15.2840000,10240.00
4572,-15.2880000,10240.00
4573,-15.2920000,10320.00
4574,-15.2960000,10240.00
4575,-15.3000000,10320.00
4576,-15.3040000,10240.00
4577,-15.3080000,10240.00
4578,-15.3120000,10240.00
4579,-15.3160000,10240.00
4580,-15.3200000,10320.00
4581,-15.3240000,10240.00
4582,-15.3280000,10240.00
4583,-15.3320000,10240.00
4584,-15.3360000,10320.00
4585,-15.3400000,10240.00
4586,-15.3440000,10320.00
4587,-15.3480000,10240.00
4588,-15.3520000,10240.00
4589,-15.3560000,10240.00
4590,-15.3600000,10240.00
4591,-15.3640000,400.00
4592,-15.3680000,400.00
4593,-15.3720000,480.00
4594,-15.3760000,400.00
4595,-15.3800000,400.00
4596,-15.3840000,400.00
4597,-15.3880000,400.00
4598,-15.3920000,480.00
4599,-15.3960000,400.00
4600,-15.4000000,400.00
4601,-15.4040000,400.00
4602,-15.4080000,400.00
4603,-15.4120000,400.00
4604,-15.4160000,480.00
4605,-15.4200000,480.00
4606,-15.4240000,480.00
4607,-15.4280000,480.00
4608,-15.4320000,480.00
4609,-15.4360000,400.00
4610,-15.4400000,480.00
4611,-15.4440000,480.00
4612,-15.4480000,400.00
4613,-15.4520000,480.00
4614,-15.4560000,480.00
4615,-15.4600000,480.00
4616,-15.4640000,480.00
4617,-15.4680000,480.00
4618,-15.4720000,480.00
4619,-15.4760000,400.00
4620,-15.4800000,400.00
4621,-15.4840000,480.00
4622,-15.4880000,400.00
4623,-15.4920000,800.00
4624,-15.4960000,7600.00
4625,-15.5000000,9520.00
4626,-15.5040000,10000.00
4627,-15.5080000,10080.00
4628,-15.5120000,10160.00
4629,-15.5160000,10160.00
4630,-15.5200000,10160.00
4631,-15.5240000,10240.00
4632,-15.5280000,10240.00
4633,-15.5320000,10240.00
4634,-15.5360000,10240.00
4635,-15.5400000,10240.00
4636,-15.5440000,10240.00
4637,-15.5480000,10240.00
4638,-15.5520000,10160.00
4639,-15.5560000,10240.00
4640,-15.5600000,10320.00
4641,-15.5640000,10240.00
4642,-15.5680000,10320.00
4643,-15.5720000,10320.00
4644,-15.5760000,10320.00
4645,-15.5800000,10240.00
4646,-15.5840000,10320.00
4647,-15.5880000,10320.00
4648,-15.5920000,10160.00
4649,-15.5960000,10160.00
4650,-15.6000000,10240.00
4651,-15.6040000,10240.00
4652,-15.6080000,10240.00
4653,-15.6120000,10160.00
4654,-15.6160000,10240.00
4655,-15.6200000,10160.00
4656,-15.6240000,10240.00
4657,-15.6280000,10240.00
4658,-15.6320000,10160.00
4659,-15.6360000,10240.00
4660,-15.6400000,10240.00
4661,-15.6440000,10240.00
4662,-15.6480000,10240.00
4663,-15.6520000,10240.00
4664,-15.6560000,10240.00
4665,-15.6600000,10240.00
4666,-15.6640000,10240.00
4667,-15.6680000,10240.00
4668,-15.6720000,10320.00
4669,-15.6760000,10240.00
4670,-15.6800000,10320.00
4671,-15.6840000,10320.00
4672,-15.6880000,10320.00
4673,-15.6920000,10240.00
4674,-15.6960000,10240.00
4675,-15.7000000,10240.00
4676,-15.7040000,10320.00
4677,-15.7080000,10240.00
4678,-15.7120000,10160.00
4679,-15.7160000,10320.00
4680,-15.7200000,10160.00
4681,-15.7240000,10240.00
4682,-15.7280000,10320.00
4683,-15.7320000,10160.00
4684,-15.7360000,10240.00
4685,-15.7400000,10240.00
4686,-15.7440000,10240.00
4687,-15.7480000,10320.00
4688,-15.7520000,10240.00
4689,-15.7560000,10240.00
4690,-15.7600000,10240.00
4691,-15.7640000,10240.00
4692,-15.7680000,10240.00
4693,-15.7720000,10240.00
4694,-15.7760000,10160.00
4695,-15.7800000,10160.00
4696,-15.7840000,10240.00
4697,-15.7880000,10320.00
4698,-15.7920000,10320.00
4699,-15.7960000,10240.00
4700,-15.8000000,10320.00
4701,-15.8040000,10320.00
4702,-15.8080000,10320.00
4703,-15.8120000,10240.00
4704,-15.8160000,10320.00
4705,-15.8200000,10240.00
4706,-15.8240000,10320.00
4707,-15.8280000,10240.00
4708,-15.8320000,10320.00
4709,-15.8360000,10240.00
4710,-15.8400000,10240.00
4711,-15.8440000,10240.00
4712,-15.8480000,10160.00
4713,-15.8520000,10160.00
4714,-15.8560000,10240.00
4715,-15.8600000,10240.00
4716,-15.8640000,10240.00
4717,-15.8680000,10240.00
4718,-15.8720000,10240.00
4719,-15.8760000,10160.00
4720,-15.8800000,10240.00
4721,-15.8840000,10240.00
4722,-15.8880000,10240.00
4723,-15.8920000,10320.00
4724,-15.8960000,10240.00
4725,-15.9000000,10160.00
4726,-15.9040000,10240.00
4727,-15.9080000,10320.00
4728,-15.9120000,10320.00
4729,-15.9160000,10240.00
4730,-15.9200000,10320.00
4731,-15.9240000,10240.00
4732,-15.9280000,10240.00
4733,-15.9320000,10320.00
4734,-15.9360000,10240.00
4735,-15.9400000,10240.00
4736,-15.9440000,10320.00
4737,-15.9480000,10320.00
4738,-15.9520000,10160.00
4739,-15.9560000,10240.00
4740,-15.9600000,10320.00
4741,-15.9640000,10240.00
4742,-15.9680000,10240.00
4743,-15.9720000,10240.00
4744,-15.9760000,10240.00
4745,-15.9800000,10160.00
4746,-15.9840000,10240.00
4747,-15.9880000,10240.00
4748,-15.9920000,10160.00
4749,-15.9960000,10240.00
4750,-16.0000000,10160.00
4751,-16.0040000,10240.00
4752,-16.0080000,10240.00
4753,-16.0120000,10240.00
4754,-16.0160000,10240.00
4755,-16.0200000,10240.00
4756,-16.0240000,10240.00
4757,-16.0280000,10240.00
4758,-16.0320000,10320.00
4759,-16.0360000,10240.00
4760,-16.0400000,10320.00
4761,-16.0440000,10240.00
4762,-16.0480000,10320.00
4763,-16.0520000,10240.00
4764,-16.0560000,10240.00
4765,-16.0600000,10240.00
4766,-16.0640000,10240.00
4767,-16.0680000,10240.00
4768,-16.0720000,10240.00
4769,-16.0760000,10240.00
4770,-16.0800000,10240.00
4771,-16.0840000,10160.00
4772,-16.0880000,10240.00
4773,-16.0920000,10240.00
4774,-16.0960000,10240.00
4775,-16.1000000,10160.00
4776,-16.1040000,10240.00
4777,-16.1080000,10240.00
4778,-16.1120000,10240.00
4779,-16.1160000,10240.00
4780,-16.1200000,10240.00
4781,-16.1240000,10160.00
4782,-16.1280000,10240.00
4783,-16.1320000,10240.00
4784,-16.1360000,10240.00
4785,-16.1400000,10160.00
4786,-16.1440000,10320.00
4787,-16.1480000,10320.00
4788,-16.1520000,10240.00
4789,-16.1560000,10240.00
4790,-16.1600000,10240.00
4791,-16.1640000,10240.00
4792,-16.1680000,10240.00
4793,-16.1720000,10320.00
4794,-16.1760000,10320.00
4795,-16.1800000,10240.00
4796,-16.1840000,10320.00
4797,-16.1880000,10240.00
4798,-16.1920000,10320.00
4799,-16.1960000,10240.00
4800,-16.2000000,10240.00
4801,-16.2040000,10320.00
4802,-16.2080000,10240.00
4803,-16.2120000,10240.00
4804,-16.2160000,10240.00
4805,-16.2200000,10240.00
4806,-16.2240000,10240.00
4807,-16.2280000,10160.00
4808,-16.2320000,10160.00
4809,-16.2360000,10160.00
4810,-16.2400000,10240.00
4811,-16.2440000,10160.00
4812,-16.2480000,10240.00
4813,-16.2520000,10320.00
4814,-16.2560000,10240.00
4815,-16.2600000,10160.00
4816,-16.2640000,10240.00
4817,-16.2680000,10240.00
4818,-16.2720000,10240.00
4819,-16.2760000,10240.00
4820,-16.2800000,10240.00
4821,-16.2840000,10320.00
4822,-16.2880000,10240.00
4823,-16.2920000,10240.00
4824,-16.2960000,10240.00
4825,-16.3000000,10240.00
4826,-16.3040000,10240.00
4827,-16.3080000,10240.00
4828,-16.3120000,10320.00
4829,-16.3160000,10240.00
4830,-16.3200000,10160.00
4831,-16.3240000,10240.00
4832,-16.3280000,10160.00
4833,-16.3320000,10240.00
4834,-16.3360000,10240.00
4835,-16.3400000,10160.00
4836,-16.3440000,10160.00
4837,-16.3480000,10240.00
4838,-16.3520000,10160.00
4839,-16.3560000,10320.00
4840,-16.3600000,10240.00
4841,-16.3640000,10240.00
4842,-16.3680000,10240.00
4843,-16.3720000,10320.00
4844,-16.3760000,10240.00
4845,-16.3800000,10160.00
4846,-16.3840000,10320.00
4847,-16.3880000,10240.00
4848,-16.3920000,10240.00
4849,-16.3960000,10320.00
4850,-16.4000000,10320.00
4851,-16.4040000,10320.00
4852,-16.4080000,10320.00
4853,-16.4120000,10240.00
4854,-16.4160000,10320.00
4855,-16.4200000,10320.00
4856,-16.4240000,10320.00
4857,-16.4280000,10320.00
4858,-16.4320000,10240.00
4859,-16.4360000,10160.00
4860,-16.4400000,10320.00
4861,-16.4440000,10240.00
4862,-16.4480000,10240.00
4863,-16.4520000,10240.00
4864,-16.4560000,10160.00
4865,-16.4600000,10240.00
4866,-16.4640000,10240.00
4867,-16.4680000,10240.00
4868,-16.4720000,10240.00
4869,-16.4760000,10240.00
4870,-16.4800000,10240.00
4871,-16.4840000,10240.00
4872,-16.4880000,10320.00
4873,-16.4920000,10320.00
4874,-16.4960000,10240.00
4875,-16.5000000,10240.00
4876,-16.5040000,10240.00
4877,-16.5080000,10320.00
4878,-16.5120000,10320.00
4879,-16.5160000,10320.00
4880,-16.5200000,10320.00
4881,-16.5240000,10240.00
4882,-16.5280000,10240.00
4883,-16.5320000,10320.00
4884,-16.5360000,10240.00
4885,-16.5400000,10240.00
4886,-16.5440000,10240.00
4887,-16.5480000,10320.00
4888,-16.5520000,10160.00
4889,-16.5560000,10240.00
4890,-16.5600000,10320.00
4891,-16.5640000,10240.00
4892,-16.5680000,10160.00
4893,-16.5720000,10240.00
4894,-16.5760000,10160.00
4895,-16.5800000,10240.00
4896,-16.5840000,10320.00
4897,-16.5880000,10320.00
4898,-16.5920000,10240.00
4899,-16.5960000,10160.00
4900,-16.6000000,10160.00
4901,-16.6040000,10240.00
4902,-16.6080000,10320.00
4903,-16.6120000,10320.00
4904,-16.6160000,10240.00
4905,-16.6200000,10240.00
4906,-16.6240000,10240.00
4907,-16.6280000,10320.00
4908,-16.6320000,10320.00
4909,-16.6360000,10240.00
4910,-16.6400000,10320.00
4911,-16.6440000,10240.00
4912,-16.6480000,10160.00
4913,-16.6520000,10320.00
4914,-16.6560000,10240.00
4915,-16.6600000,10320.00
4916,-16.6640000,10240.00
4917,-16.6680000,10320.00
4918,-16.6720000,10240.00
4919,-16.6760000,10240.00
4920,-16.6800000,10240.00
4921,-16.6840000,10160.00
4922,-16.6880000,10240.00
4923,-16.6920000,10240.00
4924,-16.6960000,10160.00
4925,-16.7000000,10160.00
4926,-16.7040000,10240.00
4927,-16.7080000,10240.00
4928,-16.7120000,10240.00
4929,-16.7160000,10240.00
4930,-16.7200000,10240.00
4931,-16.7240000,10320.00
4932,-16.7280000,10240.00
4933,-16.7320000,10240.00
4934,-16.7360000,10240.00
4935,-16.7400000,10240.00
4936,-16.7440000,10320.00
4937,-16.7480000,10240.00
4938,-16.7520000,10240.00
4939,-16.7560000,10320.00
4940,-16.7600000,10240.00
4941,-16.7640000,10320.00
4942,-16.7680000,10320.00
4943,-16.7720000,10240.00
4944,-16.7760000,10320.00
4945,-16.7800000,10240.00
4946,-16.7840000,10320.00
4947,-16.7880000,10320.00
4948,-16.7920000,10240.00
4949,-16.7960000,10240.00
4950,-16.8000000,10320.00
4951,-16.8040000,10160.00
4952,-16.8080000,10240.00
4953,-16.8120000,10240.00
4954,-16.8160000,10240.00
4955,-16.8200000,10320.00
4956,-16.8240000,10160.00
4957,-16.8280000,10240.00
4958,-16.8320000,10160.00
4959,-16.8360000,10160.00
4960,-16.8400000,10240.00
4961,-16.8440000,10240.00
4962,-16.8480000,10240.00
4963,-16.8520000,10320.00
4964,-16.8560000,10240.00
4965,-16.8600000,10240.00
4966,-16.8640000,10240.00
4967,-16.8680000,10320.00
4968,-16.8720000,10320.00
4969,-16.8760000,10240.00
4970,-16.8800000,10240.00
4971,-16.8840000,10240.00
4972,-16.8880000,10240.00
4973,-16.8920000,10320.00
4974,-16.8960000,10320.00
4975,-16.9000000,10320.00
4976,-16.9040000,10240.00
4977,-16.9080000,10320.00
4978,-16.9120000,10240.00
4979,-16.9160000,10240.00
4980,-16.9200000,10240.00
4981,-16.9240000,10160.00
4982,-16.9280000,10320.00
4983,-16.9320000,10160.00
4984,-16.9360000,10240.00
4985,-16.9400000,10240.00
4986,-16.9440000,10320.00
4987,-16.9480000,10240.00
4988,-16.9520000,10240.00
4989,-16.9560000,10160.00
4990,-16.9600000,10240.00
4991,-16.9640000,10320.00
4992,-16.9680000,10320.00
4993,-16.9720000,10320.00
4994,-16.9760000,10240.00
4995,-16.9800000,10240.00
4996,-16.9840000,10240.00
4997,-16.9880000,10240.00
4998,-16.9920000,10320.00
4999,-16.9960000,10320.00
